%OpenBCI Raw EEG Data
%Number of channels = 16
%Sample Rate = 125 Hz
%Board = OpenBCI_GUI$BoardCytonSerialDaisy
Sample Index, EXG Channel 0, EXG Channel 1, EXG Channel 2, EXG Channel 3, EXG Channel 4, EXG Channel 5, EXG Channel 6, EXG Channel 7, EXG Channel 8, EXG Channel 9, EXG Channel 10, EXG Channel 11, EXG Channel 12, EXG Channel 13, EXG Channel 14, EXG Channel 15, Accel Channel 0, Accel Channel 1, Accel Channel 2, Other, Other, Other, Other, Other, Other, Other, Analog Channel 0, Analog Channel 1, Analog Channel 2, Timestamp, Other, Timestamp (Formatted)
0.0, -13222.509708703723, -19550.601488423526, -31803.96190928959, -12100.318026580577, 6383.50175422451, 8311.540879194841, -9446.450703913059, -16559.491045414336, 0.0, 0.0, 0.0, 0.0, 0.0, 0.0, 0.0, 0.0, 0.0, 0.0, 0.0, 192.0, 0.0, 0.0, 0.0, 0.0, 0.0, 0.0, 0.0, 0.0, 0.0, 1.6730442466176236E9, 0.0, 2023-01-06 17:30:46.617
164.0, -13274.298700606669, -19597.428393057395, -31855.59443898135, -12146.541434114151, 6336.093704234803, 8274.213465954479, -9484.605131698267, -16582.066307314195, -14926.182022831683, 29339.659731347532, -10333.882014022114, -9469.137724535194, -6542.19913985719, 7515.10352076334, 1448.929482570825, 529.781047079688, 0.0, 0.0, 0.0, 192.0, 0.0, 0.0, 0.0, 0.0, 0.0, 0.0, 0.0, 0.0, 0.0, 1.6730442466176305E9, 0.0, 2023-01-06 17:30:46.617
166.0, -13241.441636257368, -19559.609241439015, -31826.470115956083, -12120.009913445701, 6370.761259884985, 8298.06277728829, -9455.458456928547, -16565.14603676153, -14906.132508055272, 29347.75106284035, -10315.642990546583, -9468.82480011282, -6522.082569847414, 7528.179291269696, 1463.1675437888557, 532.910291303431, 0.0, 0.0, 0.0, 192.0, 0.0, 0.0, 0.0, 0.0, 0.0, 0.0, 0.0, 0.0, 0.0, 1.6730442466176364E9, 0.0, 2023-01-06 17:30:46.617
168.0, -13283.172343155426, -19602.59164602657, -31862.41172104022, -12161.606509877029, 6327.421227386145, 8260.690660559017, -9490.148364323184, -16581.932196847465, -14940.66595323872, 29314.4693153464, -10348.008316517868, -9485.990939854497, -6550.357526583377, 7478.804287767922, 1436.3454504424872, 519.0969132300512, -0.228, 0.91, -0.25, 192.0, 124.0, 112.0, 14.0, 56.0, 124.0, 24.0, 0.0, 0.0, 0.0, 1.673044246617642E9, 0.0, 2023-01-06 17:30:46.617
170.0, -13227.963534350818, -19545.639401154447, -31806.085325012846, -12110.488070307742, 6384.038196091437, 8309.93155359406, -9438.269965442416, -16555.66889711248, -14903.360891742814, 29330.674330076497, -10311.440862588986, -9473.541018192891, -6521.322610535934, 7507.6380381152685, 1472.085889826523, 538.4982274172578, -0.228, 0.91, -0.25, 192.0, 0.0, 0.0, 0.0, 0.0, 0.0, 0.0, 0.0, 0.0, 0.0, 1.6730442466176476E9, 0.0, 2023-01-06 17:30:46.617
172.0, -13274.030479673205, -19589.471172031306, -31846.54198247695, -12148.016649248202, 6352.321070709357, 8278.01326251188, -9472.199913525572, -16567.3588594626, -14917.308380282926, 29342.319588937713, -10317.118205680634, -9463.795657610377, -6525.681200704718, 7508.375645682293, 1476.802107906593, 543.3485559640594, -0.228, 0.91, -0.25, 192.0, 0.0, 0.0, 0.0, 0.0, 0.0, 0.0, 0.0, 0.0, 0.0, 1.6730442466176531E9, 0.0, 2023-01-06 17:30:46.617
174.0, -13225.661304671921, -19540.789072607648, -31802.330231944354, -12103.514326037684, 6383.367643757778, 8312.703169906517, -9435.34188691877, -16560.00513553681, -14908.94882785664, 29343.504231393843, -10313.988961456891, -9473.451611215069, -6523.311915792456, 7515.0364655299745, 1479.1266893299448, 533.2008639813499, -0.228, 0.91, -0.25, 192.0, 0.0, 0.0, 0.0, 0.0, 0.0, 0.0, 0.0, 0.0, 0.0, 1.6730442466176589E9, 0.0, 2023-01-06 17:30:46.617
176.0, -13290.973101970329, -19605.58677978358, -31867.194994353653, -12161.137123243467, 6321.29684940539, 8258.857817513683, -9490.818916656843, -16582.289824758747, -14911.80985114692, 29331.121364965602, -10323.75667378386, -9465.181465766605, -6525.167110582246, 7502.9441717796535, 1472.6223316934504, 536.1065907605399, -0.228, 0.91, -0.25, 192.0, 0.0, 0.0, 0.0, 0.0, 0.0, 0.0, 0.0, 0.0, 0.0, 1.673044246617664E9, 0.0, 2023-01-06 17:30:46.617
178.0, -13225.99658083875, -19539.850299340524, -31807.806409335903, -12103.983712671246, 6379.947826856116, 8315.765358896895, -9440.281622443394, -16555.110103501094, -14911.340464513358, 29322.672405561498, -10327.623525574629, -9484.023986342429, -6534.823064186939, 7484.928665748676, 1462.452287966286, 528.5069976457355, -0.226, 0.904, -0.252, 192.0, 124.0, 120.0, 14.0, 32.0, 124.0, 16.0, 0.0, 0.0, 0.0, 1.6730442466176696E9, 0.0, 2023-01-06 17:30:46.617
180.0, -13273.963424439838, -19584.844360929055, -31847.25723829952, -12145.379143402475, 6340.519349636955, 8259.461314613976, -9482.749936908476, -16562.553234404713, -14893.414365460201, 29333.915333022516, -10307.350493353664, -9456.5313406624, -6520.585002968908, 7513.024808528997, 1473.8069741495817, 543.6614803864337, -0.226, 0.904, -0.252, 192.0, 0.0, 0.0, 0.0, 0.0, 0.0, 0.0, 0.0, 0.0, 0.0, 1.6730442466176753E9, 0.0, 2023-01-06 17:30:46.617
182.0, -13224.856641871529, -19535.49170917174, -31801.19029297713, -12104.788375471637, 6375.678643665153, 8295.358216209199, -9447.568291135824, -16558.775789591764, -14917.956580872129, 29316.100992691638, -10322.504976094364, -9483.331082264314, -6539.67339273374, 7496.1939449541505, 1453.1092587839676, 518.7392853187663, -0.226, 0.904, -0.252, 192.0, 0.0, 0.0, 0.0, 0.0, 0.0, 0.0, 0.0, 0.0, 0.0, 1.6730442466176805E9, 0.0, 2023-01-06 17:30:46.617
184.0, -13272.935244194896, -19582.810352183624, -31841.44578474114, -12142.741637556748, 6324.984887240516, 8265.138657705624, -9486.683843932611, -16561.055667526205, -14887.312339223903, 29348.086339007183, -10282.808277941738, -9439.991049765475, -6508.71622666314, 7526.793483113466, 1484.0440731101123, 548.780029866699, -0.226, 0.904, -0.252, 192.0, 0.0, 0.0, 0.0, 0.0, 0.0, 0.0, 0.0, 0.0, 0.0, 1.673044246617686E9, 0.0, 2023-01-06 17:30:46.617
186.0, -13237.507729233233, -19542.756026119714, -31805.28066221245, -12106.598866772518, 6367.587312172332, 8291.49136441843, -9462.275738987415, -16571.672746142478, -14933.267525824014, 29305.88624547556, -10331.84800527668, -9488.337873022303, -6551.810389972972, 7485.018072726497, 1441.7098691117608, 510.75971254822167, -0.226, 0.904, -0.252, 192.0, 0.0, 0.0, 0.0, 0.0, 0.0, 0.0, 0.0, 0.0, 0.0, 1.6730442466176915E9, 0.0, 2023-01-06 17:30:46.617
188.0, -13275.662157018443, -19583.659718472925, -31834.29322651544, -12138.472454365785, 6347.649556118197, 8262.836428026727, -9484.202800298071, -16560.251004725815, -14892.497943937535, 29344.174783727503, -10292.665397246528, -9449.892872559176, -6513.410092998754, 7517.428102186693, 1478.1432125739113, 538.2076547393388, -0.226, 0.902, -0.25, 192.0, 124.0, 120.0, 14.0, 24.0, 124.0, 24.0, 0.0, 0.0, 0.0, 1.6730442466176968E9, 0.0, 2023-01-06 17:30:46.617
190.0, -13250.628203228498, -19560.078628072577, -31810.712136115093, -12117.975904700268, 6355.897349822206, 8272.022994997858, -9466.857846600753, -16573.304423487716, -14925.734987942576, 29299.47129481689, -10330.641011076095, -9492.048262601884, -6537.907604921771, 7466.779049250967, 1446.00140404718, 516.2135381953166, -0.226, 0.902, -0.25, 192.0, 0.0, 0.0, 0.0, 0.0, 0.0, 0.0, 0.0, 0.0, 0.0, 1.6730442466177025E9, 0.0, 2023-01-06 17:30:46.617
192.0, -13275.639805273988, -19579.39053528196, -31824.324348488375, -12130.314067639598, 6341.279308948435, 8256.220311667958, -9479.039547328895, -16558.55227214721, -14892.833220104363, 29334.697644078453, -10295.526420536808, -9455.905491817653, -6512.426616242721, 7510.476709661092, 1473.5611049605734, 537.0900675165734, -0.226, 0.902, -0.25, 192.0, 0.0, 0.0, 0.0, 0.0, 0.0, 0.0, 0.0, 0.0, 0.0, 1.673044246617708E9, 0.0, 2023-01-06 17:30:46.617
194.0, -13268.107267392548, -19570.44983749984, -31819.272854241473, -12125.262573392698, 6348.431867174133, 8262.143523948613, -9477.072593816829, -16585.776696893776, -14942.476444539601, 29296.61027152661, -10340.252261191878, -9492.651759702178, -6554.246730118601, 7486.135659949263, 1438.4912179101966, 508.524538102691, -0.226, 0.902, -0.25, 192.0, 0.0, 0.0, 0.0, 0.0, 0.0, 0.0, 0.0, 0.0, 0.0, 1.6730442466177163E9, 0.0, 2023-01-06 17:30:46.617
196.0, -13276.5338750522, -19577.44593351435, -31824.749031633026, -12128.190651916344, 6344.050925260893, 8260.087163458726, -9483.800468897876, -16562.79910359372, -14905.417252232703, 29319.543161337755, -10304.154193896557, -9468.936558835097, -6517.120482578335, 7505.782843325477, 1465.0674420675568, 523.231985954283, -0.226, 0.902, -0.25, 192.0, 0.0, 0.0, 0.0, 0.0, 0.0, 0.0, 0.0, 0.0, 0.0, 1.673044246617722E9, 0.0, 2023-01-06 17:30:46.617
198.0, -13263.636918501488, -19563.699610674335, -31811.807371593404, -12116.098358166022, 6343.581538627332, 8265.92096876156, -9477.430221728113, -16572.052725798218, -14942.230575350593, 29291.111742390603, -10345.169644972044, -9497.412681271158, -6565.243788390611, 7467.874284729277, 1431.4504184067748, 501.17081417689496, -0.224, 0.894, -0.25, 192.0, 124.5, 0.0, 13.5, 120.0, 124.0, 24.0, 0.0, 0.0, 0.0, 1.6730442466177275E9, 0.0, 2023-01-06 17:30:46.617
200.0, -13264.173360368415, -19566.24770954224, -31810.19804599262, -12116.947724455325, 6347.738963096019, 8267.642053084619, -9471.283492002904, -16553.8584058116, -14880.830333331864, 29337.93864702447, -10286.898647177059, -9450.295203959371, -6499.708473647652, 7514.835299829877, 1481.0936428420118, 535.9501285493527, -0.224, 0.894, -0.25, 192.0, 0.0, 0.0, 0.0, 0.0, 0.0, 0.0, 0.0, 0.0, 0.0, 1.673044246617733E9, 0.0, 2023-01-06 17:30:46.617
202.0, -13287.285064135202, -19588.979433653287, -31832.370976492286, -12142.316954412097, 6324.761369795963, 8247.3466691192, -9492.540000979901, -16590.895246374042, -14943.459921295635, 29287.89309118904, -10348.790627573804, -9496.92094289314, -6554.716116752162, 7477.731404034067, 1430.5339968841074, 496.34283737454865, -0.224, 0.894, -0.25, 192.0, 0.0, 0.0, 0.0, 0.0, 0.0, 0.0, 0.0, 0.0, 0.0, 1.6730442466177385E9, 0.0, 2023-01-06 17:30:46.617
204.0, -13264.91096793544, -19563.364334507507, -31809.259272725496, -12122.490957080241, 6344.542663638909, 8263.574035593752, -9472.602244925767, -16564.453132683415, -14890.307472980914, 29323.18649568397, -10303.617752029628, -9473.943349593086, -6516.539337222498, 7500.1278519782845, 1457.736069886216, 511.1173404595066, -0.224, 0.894, -0.25, 192.0, 0.0, 0.0, 0.0, 0.0, 0.0, 0.0, 0.0, 0.0, 0.0, 1.673044246617744E9, 0.0, 2023-01-06 17:30:46.617
206.0, -13295.041119461193, -19591.706346476836, -31837.668339928194, -12150.83296904957, 6319.553413337876, 8234.896747457595, -9503.894687163198, -16586.871932372087, -14947.773807975509, 29282.394562053036, -10352.970403786947, -9504.364073796758, -6564.0591459344805, 7460.118229403285, 1412.607897830951, 485.30107561362695, -0.224, 0.894, -0.25, 192.0, 0.0, 0.0, 0.0, 0.0, 0.0, 0.0, 0.0, 0.0, 0.0, 1.6730442466177497E9, 0.0, 2023-01-06 17:30:46.617
208.0, -13268.688412748386, -19565.91243337541, -31814.377822205763, -12125.910773981903, 6347.738963096019, 8266.680928073041, -9480.268893273938, -16560.586280892647, -14899.181115529671, 29308.166123410003, -10307.976342198413, -9481.677053174622, -6521.613183213853, 7485.621569826791, 1446.6943081252944, 509.8656427700094, -0.218, 0.9, -0.25, 192.0, 124.5, 24.0, 14.0, 16.0, 124.0, 24.0, 0.0, 0.0, 0.0, 1.6730442466177552E9, 0.0, 2023-01-06 17:30:46.617
210.0, -13319.53863138421, -19612.15819265344, -31858.50016576054, -12159.371335431497, 6291.256104857458, 8225.441959553, -9520.434978060124, -16592.05753708572, -14950.411313821234, 29274.07971311566, -10365.889712082115, -9514.914097179664, -6580.957064742693, 7449.165874620185, 1399.8450517469707, 480.18252613336165, -0.218, 0.9, -0.25, 192.0, 0.0, 0.0, 0.0, 0.0, 0.0, 0.0, 0.0, 0.0, 0.0, 1.673044246617761E9, 0.0, 2023-01-06 17:30:46.617
212.0, -13265.827389458107, -19559.229261783275, -31804.073668011868, -12102.553201026107, 6343.045096760404, 8261.629433826141, -9473.071631559329, -16559.98278379235, -14914.80498490393, 29293.592786025143, -10324.47192960643, -9490.573047467835, -6527.759912939062, 7493.62349434179, 1438.8264940770262, 507.4740061132915, -0.218, 0.9, -0.25, 192.0, 0.0, 0.0, 0.0, 0.0, 0.0, 0.0, 0.0, 0.0, 0.0, 1.6730442466177661E9, 0.0, 2023-01-06 17:30:46.617
214.0, -13296.359872384057, -19588.26417783072, -31832.505086959016, -12122.02157044668, 6311.260916144957, 8239.30004111529, -9498.060881860361, -16574.08673454365, -14930.518261256011, 29291.201149368426, -10337.61475534615, -9482.347605508281, -6552.927977195737, 7478.6478255567345, 1430.355182928465, 511.9220032598977, -0.218, 0.9, -0.25, 192.0, 0.0, 0.0, 0.0, 0.0, 0.0, 0.0, 0.0, 0.0, 0.0, 1.6730442466177716E9, 0.0, 2023-01-06 17:30:46.617
216.0, -13259.34538356607, -19551.71907564629, -31797.546958630915, -12090.885590420437, 6355.696184122108, 8275.465163643976, -9461.627538398212, -16558.060533769196, -14902.288008008958, 29310.267187388803, -10311.32910386671, -9473.5857216818, -6530.978564140626, 7506.922782292698, 1449.6670901378502, 527.0541342561405, -0.218, 0.9, -0.25, 192.0, 0.0, 0.0, 0.0, 0.0, 0.0, 0.0, 0.0, 0.0, 0.0, 1.673044246617777E9, 0.0, 2023-01-06 17:30:46.617
218.0, -13302.39484338699, -19596.601378512547, -31833.0638805704, -12128.168300171888, 6317.720570292541, 8244.977384206937, -9492.808221913365, -16568.699964129923, -14932.90989791273, 29287.088428388648, -10339.157025713566, -9488.337873022303, -6552.257424862079, 7478.446659856637, 1438.0441830210905, 518.7616370632217, -0.226, 0.904, -0.246, 192.0, 124.0, 120.0, 14.0, 32.0, 124.0, 40.0, 0.0, 0.0, 0.0, 1.6730442466177828E9, 0.0, 2023-01-06 17:30:46.617
220.0, -13258.496017276766, -19551.987296579755, -31791.623746350262, -12094.953607911302, 6360.099477779803, 8278.3038351898, -9457.06778252933, -16554.640716867532, -14915.654351193232, 29292.542254035743, -10320.783891771305, -9487.153230566171, -6532.811407185961, 7463.202770138118, 1451.410526205364, 523.2766894431936, -0.226, 0.904, -0.246, 192.0, 0.0, 0.0, 0.0, 0.0, 0.0, 0.0, 0.0, 0.0, 0.0, 1.6730442466177883E9, 0.0, 2023-01-06 17:30:46.617
222.0, -13309.972084757339, -19601.563465781626, -31837.645988183736, -12140.35000090003, 6307.4387678431, 8238.96476494846, -9496.78683242641, -16565.213091994894, -14932.216993834614, 29288.94362317844, -10332.630316332617, -9484.985111354008, -6547.295337593, 7469.751831263523, 1441.7322208562161, 520.5497766196462, -0.226, 0.904, -0.246, 192.0, 0.0, 0.0, 0.0, 0.0, 0.0, 0.0, 0.0, 0.0, 0.0, 1.673044246617794E9, 0.0, 2023-01-06 17:30:46.617
224.0, -13258.317203321125, -19547.7628168777, -31794.037734751433, -12103.223753359765, 6352.879864320739, 8270.97246300846, -9460.197026753072, -16551.33265868815, -14921.644618707254, 29283.310983575702, -10325.589516829195, -9493.367015524747, -6541.327421823433, 7477.083203444863, 1439.5193981551408, 511.1620439484172, -0.226, 0.904, -0.246, 192.0, 0.0, 0.0, 0.0, 0.0, 0.0, 0.0, 0.0, 0.0, 0.0, 1.6730442466177993E9, 0.0, 2023-01-06 17:30:46.617
226.0, -13302.73011955382, -19591.147552865452, -31835.25435152702, -12140.72998055577, 6319.732227293519, 8241.646974283096, -9489.5895707118, -16546.61644060808, -14918.403615761235, 29288.697753989432, -10324.04724646178, -9481.364128752248, -6530.218604829145, 7483.073470958886, 1438.7817905881157, 515.073599228096, -0.226, 0.904, -0.246, 192.0, 0.0, 0.0, 0.0, 0.0, 0.0, 0.0, 0.0, 0.0, 0.0, 1.6730442466178064E9, 0.0, 2023-01-06 17:30:46.617
228.0, -13258.853645188052, -19548.67923840037, -31794.685935340636, -12101.972055670269, 6370.381280229245, 8277.052137500303, -9450.295203959371, -16541.87787078355, -14923.633923963776, 29280.964050407896, -10336.944203012492, -9498.932599894119, -6540.701572978684, 7472.992834209542, 1428.0753049940236, 506.24466016824965, -0.224, 0.908, -0.246, 192.0, 124.5, 0.0, 14.0, 48.0, 124.0, 40.0, 0.0, 0.0, 0.0, 1.673044246617812E9, 0.0, 2023-01-06 17:30:46.617
230.0, -13309.413291145956, -19601.719927992814, -31847.100776088333, -12152.665812094905, 6309.182203910614, 8238.696544014996, -9497.83736441581, -16555.244213967828, -14913.687397681166, 29285.054419643217, -10327.131787196611, -9485.610960198755, -6531.090322862902, 7482.469973858592, 1435.741953342194, 516.168834706406, -0.224, 0.908, -0.246, 192.0, 0.0, 0.0, 0.0, 0.0, 0.0, 0.0, 0.0, 0.0, 0.0, 1.6730442466178176E9, 0.0, 2023-01-06 17:30:46.617
232.0, -13252.908081162941, -19547.91927908889, -31797.34579293082, -12107.403529572908, 6343.872111305251, 8280.11432649068, -9455.436105184092, -16546.527033630256, -14950.500720799057, 29254.32077101717, -10357.597214889194, -9522.290172849915, -6556.057221419481, 7440.247528582518, 1405.6788570498059, 487.6927122703448, -0.224, 0.908, -0.246, 192.0, 0.0, 0.0, 0.0, 0.0, 0.0, 0.0, 0.0, 0.0, 0.0, 1.6730442466178231E9, 0.0, 2023-01-06 17:30:46.617
234.0, -13286.34629086808, -19588.06301213062, -31833.68972941515, -12145.69206782485, 6304.041302685893, 8242.719858016952, -9484.694538676089, -16542.74958881731, -14913.195659303148, 29292.22932961337, -10319.152214426067, -9481.677053174622, -6520.026209357526, 7492.081223974375, 1442.9168633123475, 520.7062388308333, -0.224, 0.908, -0.246, 192.0, 0.0, 0.0, 0.0, 0.0, 0.0, 0.0, 0.0, 0.0, 0.0, 1.673044246617829E9, 0.0, 2023-01-06 17:30:46.617
236.0, -13252.058714873638, -19554.222471025285, -31806.1076767573, -12111.359788341499, 6334.35026816729, 8272.045346742314, -9456.084305773295, -16545.18592896294, -14953.540558044979, 29269.989343880337, -10361.397011446597, -9522.245469361003, -6559.745259254606, 7463.180418393662, 1406.416464616831, 481.9706656897862, -0.224, 0.908, -0.246, 192.0, 0.0, 0.0, 0.0, 0.0, 0.0, 0.0, 0.0, 0.0, 0.0, 1.6730442466178343E9, 0.0, 2023-01-06 17:30:46.617
238.0, -13289.475535091822, -19591.683994732382, -31835.09788931583, -12133.622125818983, 6309.2492591439795, 8254.186302922524, -9474.21157052655, -16530.254963666794, -14929.937115900173, 29298.17489363848, -10324.159005184056, -9480.715928163043, -6530.464474018154, 7499.05496824443, 1443.9226918128363, 515.1630062059172, -0.224, 0.909, -0.242, 192.0, 124.5, 0.0, 14.0, 56.0, 124.0, 72.0, 0.0, 0.0, 0.0, 1.6730442466178403E9, 0.0, 2023-01-06 17:30:46.617
240.0, -13253.265709074225, -19556.144721048444, -31801.86084531079, -12101.279151592154, 6345.190864228113, 8291.69253011853, -9436.280660185894, -16525.628152564546, -14976.518151345033, 29269.564660735687, -10364.794476603804, -9515.629353002234, -6574.229189661645, 7471.875246986777, 1410.998572230169, 493.90649722892016, -0.224, 0.909, -0.242, 192.0, 0.0, 0.0, 0.0, 0.0, 0.0, 0.0, 0.0, 0.0, 0.0, 1.6730442466178458E9, 0.0, 2023-01-06 17:30:46.617
242.0, -13257.445485287368, -19558.73752340526, -31814.28841522794, -12112.007988930702, 6335.0208205009485, 8285.746966093417, -9442.136817233184, -16509.98193144583, -14921.957543129629, 29331.90367602154, -10304.958856696947, -9464.756782621955, -6520.607354713364, 7525.005343557042, 1458.898360597892, 532.8879395589756, -0.224, 0.909, -0.242, 192.0, 0.0, 0.0, 0.0, 0.0, 0.0, 0.0, 0.0, 0.0, 0.0, 1.6730442466178515E9, 0.0, 2023-01-06 17:30:46.617
244.0, -13244.43677001438, -19545.885270343457, -31806.755877346503, -12104.788375471637, 6330.952803010083, 8296.900486576616, -9434.984259007486, -16521.001341462295, -14964.381154105802, 29307.964957709904, -10348.991793273903, -9498.776137682931, -6566.473134335653, 7484.079299459375, 1420.475711879219, 503.3389333890597, -0.224, 0.909, -0.242, 192.0, 0.0, 0.0, 0.0, 0.0, 0.0, 0.0, 0.0, 0.0, 0.0, 1.6730442466178572E9, 0.0, 2023-01-06 17:30:46.617
246.0, -13238.804130411641, -19546.600526166025, -31812.656737882706, -12102.597904515018, 6323.017933728449, 8290.574942895764, -9436.682991586089, -16502.337634842115, -14923.276296052492, 29338.38568191358, -10304.914153208036, -9465.203817511061, -6530.0174391290475, 7511.840166072866, 1451.0528982940791, 526.7635615782216, -0.224, 0.909, -0.242, 192.0, 0.0, 0.0, 0.0, 0.0, 0.0, 0.0, 0.0, 0.0, 0.0, 1.6730442466178625E9, 0.0, 2023-01-06 17:30:46.617
248.0, -13236.323086777102, -19546.33230523256, -31820.792772864435, -12102.553201026107, 6317.452349359078, 8278.281483445346, -9446.361296935236, -16534.32298115766, -14973.500665843567, 29305.729783264374, -10349.863511307658, -9499.647855716688, -6578.364262385877, 7492.528258863481, 1404.7400837826829, 496.34283737454865, -0.223, 0.9055, -0.242, 192.0, 124.5, 8.0, 14.0, 24.0, 124.0, 56.0, 0.0, 0.0, 0.0, 1.6730442466178684E9, 0.0, 2023-01-06 17:30:46.617
250.0, -13232.880918130984, -19544.29829648713, -31812.25440648251, -12095.311235822588, 6322.01210522796, 8287.244532971923, -9439.34284917627, -16517.98385596083, -14918.00128436104, 29347.013455273325, -10298.99094092738, -9455.458456928547, -6532.8337589304165, 7540.428047231204, 1444.2803197241212, 526.2047679668389, -0.223, 0.9055, -0.242, 192.0, 0.0, 0.0, 0.0, 0.0, 0.0, 0.0, 0.0, 0.0, 0.0, 1.673044246617874E9, 0.0, 2023-01-06 17:30:46.617
252.0, -13252.885729418485, -19565.890081630958, -31827.11831654529, -12116.500689566219, 6310.165680666648, 8283.802364325806, -9450.58577663729, -16537.005190492295, -14979.245064168581, 29298.756038994317, -10357.597214889194, -9503.090024362806, -6582.767556043573, 7486.046252971441, 1403.7119035377389, 485.36813084699287, -0.223, 0.9055, -0.242, 192.0, 0.0, 0.0, 0.0, 0.0, 0.0, 0.0, 0.0, 0.0, 0.0, 1.6730442466178794E9, 0.0, 2023-01-06 17:30:46.617
254.0, -13248.61654622752, -19557.61993618249, -31818.647005396728, -12111.53860229714, 6325.498977362988, 8278.370890423166, -9444.77432307891, -16525.672856053454, -14931.546441500956, 29327.94741725295, -10315.218307401932, -9480.581817696311, -6544.9260526807375, 7519.685628376678, 1449.5106279266631, 505.7752735346882, -0.223, 0.9055, -0.242, 192.0, 0.0, 0.0, 0.0, 0.0, 0.0, 0.0, 0.0, 0.0, 0.0, 1.6730442466178849E9, 0.0, 2023-01-06 17:30:46.617
0.0, -13275.81861922963, -19583.92793940639, -31838.54005796195, -12139.143006699445, 6291.099642646271, 8249.112456931169, -9467.796619867877, -16546.03529525224, -14985.39179389379, 29283.60155625362, -10377.110287798678, -9525.195899629105, -6593.675207337762, 7454.910272945199, 1403.6895517932835, 463.9551596588087, -0.223, 0.9055, -0.242, 192.0, 0.0, 0.0, 0.0, 0.0, 0.0, 0.0, 0.0, 0.0, 0.0, 1.6730442466178904E9, 0.0, 2023-01-06 17:30:46.617
2.0, -13223.04615057065, -19531.133119002952, -31789.72384807156, -12087.19755258531, 6342.240433960013, 8298.129832521658, -9421.19323267856, -16502.963483686864, -14932.105235112338, 29325.4216701295, -10315.017141701835, -9485.856829387765, -6545.48484629212, 7512.890698062265, 1459.9265408428362, 506.490529357258, -0.2225, 0.89775, -0.24, 192.0, 124.5, 8.0, 13.5, 104.0, 124.0, 72.0, 0.0, 0.0, 0.0, 1.6730442466178975E9, 0.0, 2023-01-06 17:30:46.617
4.0, -13280.311319865146, -19588.085363875078, -31844.217401053596, -12133.77858803017, 6289.825593212318, 8249.91711973156, -9469.696518146577, -16544.94005977393, -14992.030261997017, 29302.399373340533, -10359.877092823637, -9506.912172664664, -6589.584838102441, 7491.857706529821, 1425.6613165928504, 495.2923053851492, -0.2225, 0.89775, -0.24, 192.0, 0.0, 0.0, 0.0, 0.0, 0.0, 0.0, 0.0, 0.0, 0.0, 1.673044246617905E9, 0.0, 2023-01-06 17:30:46.617
6.0, -13229.394045995958, -19535.692874871835, -31799.066877253877, -12094.081889877545, 6334.484378634022, 8290.284370217845, -9429.262212426927, -16521.470728095857, -14954.971069690118, 29320.124306693593, -10332.205633187967, -9492.83057365782, -6561.10871566638, 7520.244421988061, 1440.1452469998894, 500.9920002212525, -0.2225, 0.89775, -0.24, 192.0, 0.0, 0.0, 0.0, 0.0, 0.0, 0.0, 0.0, 0.0, 0.0, 1.6730442466179104E9, 0.0, 2023-01-06 17:30:46.617
8.0, -13276.600930285565, -19583.30209056164, -31838.1153748173, -12142.585175345563, 6296.2181921265355, 8246.139674918613, -9466.96960532303, -16540.380303905047, -14974.506494344056, 29301.28178611777, -10348.85768280717, -9496.987998126508, -6579.593608330919, 7493.534087363969, 1415.2007001877666, 483.46823256829174, -0.2225, 0.89775, -0.24, 192.0, 0.0, 0.0, 0.0, 0.0, 0.0, 0.0, 0.0, 0.0, 0.0, 1.673044246617916E9, 0.0, 2023-01-06 17:30:46.617
10.0, -13228.947011106851, -19537.458662683806, -31795.110618485287, -12108.632875517951, 6342.218082215558, 8270.234855441435, -9432.749084561954, -16525.27052465326, -14939.928345671697, 29301.684117517965, -10324.650743562073, -9495.512782992457, -6550.0893056499135, 7498.853802544332, 1423.4708456362303, 472.0911946405405, -0.2225, 0.89775, -0.24, 192.0, 0.0, 0.0, 0.0, 0.0, 0.0, 0.0, 0.0, 0.0, 0.0, 1.6730442466179216E9, 0.0, 2023-01-06 17:30:46.617
12.0, -13284.491096078289, -19590.633462742982, -31842.898648130737, -12154.230434206776, 6283.097718131271, 8223.475006040931, -9483.822820642332, -16551.824397066164, -14969.231482652604, 29297.79491398274, -10346.264880450355, -9503.40294878518, -6572.709271038684, 7467.337842862349, 1397.3640081124317, 447.3031100396049, -0.22125, 0.8968750000000001, -0.24, 192.0, 124.5, 16.0, 14.0, 0.0, 124.0, 64.0, 0.0, 0.0, 0.0, 1.673044246617927E9, 0.0, 2023-01-06 17:30:46.617
14.0, -13229.103473318039, -19533.904735315413, -31791.690801583627, -12097.747575968217, 6326.437750630111, 8264.4010501386, -9441.399209666159, -16530.500832855803, -14947.81851146442, 29298.4654663164, -10331.177452943022, -9505.347550552791, -6564.0591459344805, 7477.060851700408, 1411.9149937528366, 449.4488775073144, -0.22125, 0.8968750000000001, -0.24, 192.0, 0.0, 0.0, 0.0, 0.0, 0.0, 0.0, 0.0, 0.0, 0.0, 1.6730442466179326E9, 0.0, 2023-01-06 17:30:46.617
16.0, -13282.4347355884, -19579.770514937703, -31837.243656783543, -12134.538547341652, 6271.966549392528, 8220.882203684116, -9485.968588110041, -16538.726274815355, -14956.647450524266, 29298.532521549765, -10335.290173922798, -9487.510858477457, -6572.441050105221, 7497.244476943551, 1407.5564035840516, 457.5849124890462, -0.22125, 0.8968750000000001, -0.24, 192.0, 0.0, 0.0, 0.0, 0.0, 0.0, 0.0, 0.0, 0.0, 0.0, 1.673044246617938E9, 0.0, 2023-01-06 17:30:46.617
18.0, -13231.80803439713, -19525.63458986695, -31786.751066059005, -12085.454116517796, 6329.052904731382, 8266.122134461659, -9440.661602099133, -16525.650504309, -14965.632851795299, 29296.3644023376, -10335.983078000912, -9493.501125991479, -6581.091175209424, 7499.636113600268, 1404.7847872715936, 455.34973804351546, -0.22125, 0.8968750000000001, -0.24, 192.0, 0.0, 0.0, 0.0, 0.0, 0.0, 0.0, 0.0, 0.0, 0.0, 1.6730442466179438E9, 0.0, 2023-01-06 17:30:46.617
20.0, -13285.921607723429, -19577.624747469992, -31828.571179934883, -12125.866070492992, 6284.371767565223, 8232.996849178893, -9475.195047282583, -16530.858460767085, -14945.158653874238, 29315.251626402336, -10327.779987785816, -9473.473962959524, -6564.72969826814, 7510.67787536119, 1422.5991276024733, 479.04258716614095, -0.22125, 0.8968750000000001, -0.24, 192.0, 0.0, 0.0, 0.0, 0.0, 0.0, 0.0, 0.0, 0.0, 0.0, 1.6730442466179495E9, 0.0, 2023-01-06 17:30:46.617
22.0, -13246.537833993178, -19543.24776449773, -31788.8521300378, -12088.940988652825, 6327.10830296377, 8279.555532879298, -9432.279697928394, -16526.186946175927, -14974.05945945495, 29285.724971976873, -10350.444656663496, -9510.935486666618, -6585.293303167022, 7494.204639697628, 1408.7857495290934, 466.65972073790084, -0.22462500000000002, 0.9004375, -0.243, 192.0, 124.0, 112.0, 14.0, 32.0, 124.0, 40.0, 0.0, 0.0, 0.0, 1.673044246617955E9, 0.0, 2023-01-06 17:30:46.617
24.0, -13296.762203784252, -19593.762706966725, -31839.45647948462, -12136.147872942433, 6281.421337297123, 8238.58478529272, -9469.048317557374, -16527.148071187505, -14947.036200408484, 29309.37311761059, -10326.595345329684, -9483.599303197778, -6553.5538260404865, 7509.627343371791, 1440.1899504888, 496.7451687747442, -0.22462500000000002, 0.9004375, -0.243, 192.0, 0.0, 0.0, 0.0, 0.0, 0.0, 0.0, 0.0, 0.0, 0.0, 1.6730442466179607E9, 0.0, 2023-01-06 17:30:46.617
26.0, -13262.876959190007, -19560.68212517287, -31808.365202947287, -12113.594962787029, 6318.838157515306, 8270.324262419255, -9435.520700874413, -16530.478481111346, -14981.122610702827, 29265.898974645017, -10370.762392373372, -9530.672077020656, -6595.2845329385445, 7449.389392064738, 1402.7954820150712, 463.7316422142556, -0.22462500000000002, 0.9004375, -0.243, 192.0, 0.0, 0.0, 0.0, 0.0, 0.0, 0.0, 0.0, 0.0, 0.0, 1.6730442466179662E9, 0.0, 2023-01-06 17:30:46.617
28.0, -13309.68151207942, -19603.396308826963, -31837.847153883835, -12149.78243706017, 6297.604000282765, 8244.038610939815, -9459.01238429694, -16521.806004262686, -14945.158653874238, 29278.907689918007, -10339.358191413665, -9504.967570897052, -6556.638366775319, 7473.283406887461, 1439.0723632660347, 492.23011639477215, -0.22462500000000002, 0.9004375, -0.243, 192.0, 0.0, 0.0, 0.0, 0.0, 0.0, 0.0, 0.0, 0.0, 0.0, 1.6730442466179724E9, 0.0, 2023-01-06 17:30:46.617
0.0, -7840.231995610237, -10916.502584994148, -16147.682505569757, -6701.455319101253, 1512.7437129907266, 2658.1141541140264, -5661.9203879738325, -8613.51294678604, -7494.830488542377, 14621.013655783376, -5189.0468822773555, -4773.103269708547, -3295.4741472571072, 3725.074675688109, 702.738845674854, 227.09372366591975, -0.252, 0.89, -0.278, 192.0, 124.0, 16.0, 13.5, 104.0, 123.5, 40.0, 0.0, 0.0, 0.0, 1.673044246727524E9, 0.0, 2023-01-06 17:30:46.727
2.0, -15701.675796708561, -21855.312210954693, -32315.459229404838, -13418.08747268766, 3004.007399559903, 5304.515994133472, -11336.380104587091, -17194.369994922876, -16833.56813592531, 25140.750424951366, -12681.329271951829, -12399.83140228169, -8892.082737932533, 4224.032667163929, -1441.4639999227525, -3091.402720380154, -0.252, 0.89, -0.278, 192.0, 0.0, 0.0, 0.0, 0.0, 0.0, 0.0, 0.0, 0.0, 0.0, 1.6730442472066975E9, 0.0, 2023-01-06 17:30:47.206
4.0, -15762.852521282735, -21921.138098375573, -32378.26763132425, -13480.270025762324, 2936.974517938437, 5235.94084214459, -11395.120489015639, -17278.099629652457, -16951.473587927056, 25032.031539920754, -12802.7215960886, -12492.099403393198, -9013.139785902475, 4106.797767495843, -1548.1935796968437, -3179.0439103894128, -0.252, 0.89, -0.278, 192.0, 0.0, 0.0, 0.0, 0.0, 0.0, 0.0, 0.0, 0.0, 0.0, 1.673044247206756E9, 0.0, 2023-01-06 17:30:47.206
6.0, -15718.0596253943, -21880.793199633743, -32315.191008471375, -13422.066083200703, 3002.8004053593168, 5290.166174193165, -11337.073008665206, -17217.638160900853, -16867.140456097182, 25081.853578311635, -12713.672246178658, -12442.970269080433, -8929.834834317546, 4170.29907349337, -1458.3395669865092, -3107.7641973214386, -0.252, 0.89, -0.278, 192.0, 0.0, 0.0, 0.0, 0.0, 0.0, 0.0, 0.0, 0.0, 0.0, 1.673044247206765E9, 0.0, 2023-01-06 17:30:47.206
8.0, -15764.908881772624, -21931.28579035828, -32354.038340334697, -13465.048487788259, 2958.1639716820687, 5241.729943958515, -11375.339195172692, -17276.222083118213, -16943.896346556707, 25004.918873896466, -12789.95875000462, -12492.23351385993, -9004.10968114253, 4090.928028932575, -1509.4133030668859, -3160.357852024776, -0.274, 0.89, -0.29, 192.0, 123.5, 56.0, 13.5, 104.0, 123.0, 120.0, 0.0, 0.0, 0.0, 1.6730442472067735E9, 0.0, 2023-01-06 17:30:47.206
10.0, -15682.38624124363, -21854.306382454204, -32277.05893243062, -13394.79695496523, 3026.0909230817465, 5302.437281899129, -11314.989485143362, -17216.25235274462, -16826.75085386644, 25087.329755703184, -12682.22334173004, -12422.205498481453, -8896.776604268147, 4179.977378842518, -1418.9781450007135, -3092.1403279471792, -0.274, 0.89, -0.29, 192.0, 0.0, 0.0, 0.0, 0.0, 0.0, 0.0, 0.0, 0.0, 0.0, 1.6730442472067819E9, 0.0, 2023-01-06 17:30:47.206
12.0, -15792.736803619482, -21970.647212344076, -32384.70493372738, -13512.14361335559, 2917.8861281736054, 5186.007045031434, -11432.559660978277, -17326.401749420376, -16922.30456141288, 24983.23768177482, -12782.135639445263, -12489.32778708074, -8988.888143168468, 4071.3255490452707, -1520.052733427612, -3179.0439103894128, -0.274, 0.89, -0.29, 192.0, 0.0, 0.0, 0.0, 0.0, 0.0, 0.0, 0.0, 0.0, 0.0, 1.6730442472067902E9, 0.0, 2023-01-06 17:30:47.206
14.0, -15681.112191809678, -21863.29178372524, -32278.44474058685, -13417.819251754196, 3028.12493182718, 5277.783307764925, -11337.408284832036, -17248.93060313828, -16847.493272720967, 25023.29200783873, -12717.874374136254, -12469.881769404623, -8919.821252801568, 4098.281752858371, -1483.0382446096237, -3151.4395059871085, -0.274, 0.89, -0.29, 192.0, 0.0, 0.0, 0.0, 0.0, 0.0, 0.0, 0.0, 0.0, 0.0, 1.6730442472067995E9, 0.0, 2023-01-06 17:30:47.206
16.0, -15790.83690534078, -21972.59181411169, -32385.643706994502, -13525.800529217784, 2922.937622420505, 5178.586265872272, -11442.193262838515, -17323.406615663363, -16880.842075448283, 24992.245434790308, -12760.610909534802, -12480.968234654456, -8952.208930517309, 4063.636548952645, -1516.2529368702099, -3168.6279974732397, -0.274, 0.89, -0.29, 192.0, 0.0, 0.0, 0.0, 0.0, 0.0, 0.0, 0.0, 0.0, 0.0, 1.6730442472068083E9, 0.0, 2023-01-06 17:30:47.206
18.0, -15656.86054907567, -21837.006132245795, -32258.506984532713, -13403.089452158149, 3043.79350469035, 5305.320656933864, -11330.412188817525, -17224.008408070615, -16832.919935336107, 25011.646748977513, -12726.055112606897, -12478.487191019916, -8918.547203367616, 4098.773491236388, -1505.9934861652239, -3152.6465001876954, -0.28, 0.892, -0.308, 192.0, 123.5, 32.0, 13.5, 112.0, 123.0, 48.0, 0.0, 0.0, 0.0, 1.673044247206817E9, 0.0, 2023-01-06 17:30:47.206
20.0, -15782.611463381227, -21966.087456475194, -32381.195709847896, -13522.738340227406, 2923.5187677763424, 5188.778661343892, -11438.88520465913, -17302.775955531117, -16854.735237924488, 25013.501943767304, -12733.699409210612, -12453.9896790969, -8929.276040706163, 4097.85706971372, -1505.1664716203777, -3135.882691846215, -0.28, 0.892, -0.308, 192.0, 0.0, 0.0, 0.0, 0.0, 0.0, 0.0, 0.0, 0.0, 0.0, 1.6730442472068243E9, 0.0, 2023-01-06 17:30:47.206
22.0, -15666.0471160468, -21850.350123685614, -32265.659542758414, -13407.380987093567, 3039.7478389439393, 5305.790043567425, -11334.10022665265, -17220.40977721331, -16865.978165385506, 24986.791609143213, -12746.484607039049, -12492.680548749036, -8947.403305459417, 4087.3293980752705, -1517.5269863041624, -3158.81558165736, -0.28, 0.892, -0.308, 192.0, 0.0, 0.0, 0.0, 0.0, 0.0, 0.0, 0.0, 0.0, 0.0, 1.6730442472068343E9, 0.0, 2023-01-06 17:30:47.206
24.0, -15784.64547212666, -21969.44021814349, -32372.97026788834, -13514.781119201318, 2926.9832881669154, 5201.429748705596, -11428.223422553949, -17265.89557717986, -16837.747912138453, 25026.24243810683, -12721.920039882665, -12447.351210993673, -8918.658962089892, 4113.883270488175, -1471.705910170783, -3117.9342410486033, -0.28, 0.892, -0.308, 192.0, 0.0, 0.0, 0.0, 0.0, 0.0, 0.0, 0.0, 0.0, 0.0, 1.673044247206842E9, 0.0, 2023-01-06 17:30:47.206
26.0, -15693.696223938015, -21878.490969954848, -32284.412656356417, -13427.497557103343, 3017.753722399917, 5276.196333908598, -11352.652174550554, -17238.73820766666, -16887.704060996064, 24967.83732984511, -12774.468991097092, -12515.635790304637, -8959.070916065088, 4066.028185609363, -1514.867128713981, -3175.646445232206, -0.28, 0.892, -0.308, 192.0, 0.0, 0.0, 0.0, 0.0, 0.0, 0.0, 0.0, 0.0, 0.0, 1.6730442472068508E9, 0.0, 2023-01-06 17:30:47.206
28.0, -15797.095393788266, -21975.095209490682, -32376.70300921238, -13522.403064060578, 2926.3350875777114, 5188.376329943697, -11439.823977926253, -17292.158876914844, -16862.08896185028, 25003.734231440336, -12743.310659326395, -12473.368641539651, -8920.871784790968, 4076.6899677145448, -1481.540677731118, -3143.52698844993, -0.314, 0.908, -0.33, 192.0, 123.0, 24.0, 14.0, 48.0, 122.5, 88.0, 0.0, 0.0, 0.0, 1.67304424720686E9, 0.0, 2023-01-06 17:30:47.206
30.0, -15685.224912789454, -21859.693152867934, -32265.033693913665, -13423.407187868022, 3036.529187742375, 5289.965008493067, -11332.803825474242, -17239.051132089036, -16896.309482611356, 24967.814978100658, -12779.207560921617, -12523.302438652807, -8950.621956660982, 4053.7123744144887, -1513.7718932356709, -3176.1828870991335, -0.314, 0.908, -0.33, 192.0, 0.0, 0.0, 0.0, 0.0, 0.0, 0.0, 0.0, 0.0, 0.0, 1.673044247206866E9, 0.0, 2023-01-06 17:30:47.206
32.0, -15778.297576701354, -21944.987409709385, -32350.26089552175, -13519.564392514754, 2962.8354862732276, 5209.610487176238, -11412.577201435233, -17281.005356431648, -16827.6225719002, 25037.53006905676, -12709.537173454426, -12457.498902976384, -8871.317967333553, 4124.522700848902, -1444.57089240204, -3111.072255500824, -0.314, 0.908, -0.33, 192.0, 0.0, 0.0, 0.0, 0.0, 0.0, 0.0, 0.0, 0.0, 0.0, 1.6730442472068725E9, 0.0, 2023-01-06 17:30:47.206
34.0, -15707.174325844566, -21870.75726637331, -32299.20951118583, -13482.035813574294, 3028.7060771830174, 5266.003938436978, -11369.77361080332, -17270.298870837556, -16908.133555428216, 24963.769312354245, -12794.183229706674, -12547.218805219985, -8943.603508902015, 4054.6287959371566, -1530.2004254103215, -3196.9923611870245, -0.314, 0.908, -0.33, 192.0, 0.0, 0.0, 0.0, 0.0, 0.0, 0.0, 0.0, 0.0, 0.0, 1.6730442472068784E9, 0.0, 2023-01-06 17:30:47.206
36.0, -15774.587187121771, -21934.01270318183, -32377.418265034947, -13562.993831991414, 2965.5847508412303, 5217.008914590945, -11419.841518383208, -17272.712859238727, -16839.29018250587, 25031.562153287192, -12732.112435354285, -12493.775784227346, -8873.977824923733, 4116.319610633804, -1473.516401471663, -3141.403572726676, -0.314, 0.908, -0.33, 192.0, 0.0, 0.0, 0.0, 0.0, 0.0, 0.0, 0.0, 0.0, 0.0, 1.6730442472068868E9, 0.0, 2023-01-06 17:30:47.206
38.0, -15716.20443060451, -21877.440437965448, -32336.112241281542, -13523.408892561067, 3007.918954839582, 5252.816409208347, -11386.15743948906, -17286.280368123098, -16923.712721313565, 24946.69257959039, -12827.554384178447, -12579.070041068799, -8962.401325988929, 4032.031182292841, -1565.4491264163407, -3226.49666386803, -0.358, 0.856, -0.378, 192.0, 122.0, 104.0, 13.0, 96.0, 122.0, 24.0, 0.0, 0.0, 0.0, 1.6730442472068927E9, 0.0, 2023-01-06 17:30:47.206
40.0, -15737.058608181313, -21895.14301957405, -32355.088872324097, -13537.334029356722, 2988.2717714633673, 5237.483112512006, -11407.860983355164, -17281.47474306521, -16829.164842267615, 25047.409540106004, -12719.953086370599, -12494.736909238925, -8865.819438197546, 4111.089302431262, -1477.4726602402523, -3144.711630906061, -0.358, 0.856, -0.378, 192.0, 0.0, 0.0, 0.0, 0.0, 0.0, 0.0, 0.0, 0.0, 0.0, 1.6730442472068987E9, 0.0, 2023-01-06 17:30:47.206
42.0, -15692.511581481886, -21844.98570501634, -32313.715793337324, -13493.614017202142, 3027.275565537878, 5269.714328016559, -11372.165247460038, -17296.875094994914, -16921.142270701203, 24977.806207872178, -12805.627322867791, -12560.853369337723, -8958.802695131624, 4038.602595162701, -1560.6435013584498, -3218.0477044639238, -0.358, 0.856, -0.378, 192.0, 0.0, 0.0, 0.0, 0.0, 0.0, 0.0, 0.0, 0.0, 0.0, 1.673044247206905E9, 0.0, 2023-01-06 17:30:47.206
44.0, -15716.249134093421, -21874.13237978606, -32335.665206392434, -13505.57220048573, 3002.979219314959, 5250.022441151434, -11387.565599389745, -17288.04615593507, -16810.456432158524, 25073.829302052178, -12693.958007569076, -12475.17913284053, -8850.128513589922, 4147.612052871234, -1456.9761105747357, -3125.6008893967737, -0.358, 0.856, -0.378, 192.0, 0.0, 0.0, 0.0, 0.0, 0.0, 0.0, 0.0, 0.0, 0.0, 1.673044247206911E9, 0.0, 2023-01-06 17:30:47.206
46.0, -15712.181116602555, -21872.031315807264, -32339.330892483104, -13504.76753768534, 2979.822812059261, 5240.0535631243665, -11401.155460018572, -17328.972200032735, -16922.483375368523, 24971.12303628004, -12808.287180457972, -12563.379116461172, -8956.589872430548, 4040.3907347191257, -1562.923379292891, -3220.551099842918, -0.358, 0.856, -0.378, 192.0, 0.0, 0.0, 0.0, 0.0, 0.0, 0.0, 0.0, 0.0, 0.0, 1.6730442472069173E9, 0.0, 2023-01-06 17:30:47.206
48.0, -15692.735098926438, -21855.692190610433, -32320.64483411847, -13474.14564778157, 2992.630361632152, 5259.924263945135, -11384.861038310652, -17284.3804698444, -16807.640112357156, 25061.62524957958, -12694.337987224817, -12484.075127133743, -8851.693135701793, 4126.288488660871, -1473.158773560378, -3144.018726827947, -0.372, 0.852, -0.388, 192.0, 122.0, 48.0, 13.0, 80.0, 121.5, 112.0, 0.0, 0.0, 0.0, 1.6730442472069235E9, 0.0, 2023-01-06 17:30:47.206
50.0, -15723.088767896745, -21893.28782478426, -32345.6340844195, -13492.787002657296, 2957.828695515239, 5223.647382694171, -11418.701579415987, -17321.484365640208, -16910.547543829387, 24960.684771619413, -12801.939285032664, -12552.717334355992, -8957.908625353411, 4022.263469965872, -1570.3218067075977, -3223.814454533393, -0.372, 0.852, -0.388, 192.0, 0.0, 0.0, 0.0, 0.0, 0.0, 0.0, 0.0, 0.0, 0.0, 1.6730442472069297E9, 0.0, 2023-01-06 17:30:47.206
52.0, -15701.161706586088, -21868.36562971659, -32317.24736896126, -13457.359487695634, 2987.2212394739677, 5255.632729009715, -11438.035838369828, -17257.245452075655, -16801.64984484313, 25061.669953068493, -12693.108641279774, -12485.840914945713, -8849.99440312319, 4142.113523735228, -1473.896381127403, -3138.7437151364943, -0.372, 0.852, -0.388, 192.0, 0.0, 0.0, 0.0, 0.0, 0.0, 0.0, 0.0, 0.0, 0.0, 1.6730442472069356E9, 0.0, 2023-01-06 17:30:47.206
54.0, -15769.222768452499, -21945.188575409484, -32389.532910529724, -13522.693636738497, 2935.0969714041917, 5180.664978106615, -11485.287426148347, -17345.177214762833, -16934.843890052307, 24942.624562099525, -12827.308514989438, -12579.651186424637, -8976.05824185112, 4018.642487364112, -1598.88733612148, -3240.2206349635885, -0.372, 0.852, -0.388, 192.0, 0.0, 0.0, 0.0, 0.0, 0.0, 0.0, 0.0, 0.0, 0.0, 1.6730442472069416E9, 0.0, 2023-01-06 17:30:47.206
56.0, -15695.77493617236, -21875.272318753283, -32305.53505486668, -13440.461568887422, 3015.3620857431993, 5254.939824931601, -11359.715325798432, -17275.819751718016, -16858.020944359418, 24995.307623780685, -12740.181415102652, -12532.779578301857, -8895.547258323104, 4078.5004590154244, -1500.6290674959503, -3187.336407582332, -0.372, 0.852, -0.388, 192.0, 0.0, 0.0, 0.0, 0.0, 0.0, 0.0, 0.0, 0.0, 0.0, 1.6730442472069478E9, 0.0, 2023-01-06 17:30:47.206
58.0, -15743.607669306717, -21918.835868696675, -32340.604941917056, -13465.428467444, 2960.2873874053225, 5231.738714186992, -11399.657893140065, -17305.86049626595, -16917.409529377168, 24959.813053585658, -12786.114249958307, -12534.81358704729, -8950.756067127713, 4032.478217181947, -1526.1771114083663, -3204.4354920906417, -0.39, 0.892, -0.366, 192.0, 121.5, 104.0, 13.5, 112.0, 122.0, 72.0, 0.0, 0.0, 0.0, 1.673044247206956E9, 0.0, 2023-01-06 17:30:47.206
60.0, -15661.733229366928, -21833.742777555322, -32251.28737107365, -13371.774658176264, 3031.6788591955733, 5312.942601793123, -11305.646455961045, -17227.78585288356, -16838.440816216567, 25005.321205296663, -12705.916190852666, -12476.788458441313, -8881.465659316262, 4107.177747151583, -1460.2618170096657, -3147.2150262850555, -0.39, 0.892, -0.366, 192.0, 0.0, 0.0, 0.0, 0.0, 0.0, 0.0, 0.0, 0.0, 0.0, 1.6730442472069635E9, 0.0, 2023-01-06 17:30:47.206
62.0, -15753.464788611507, -21923.127403632094, -32344.672959407922, -13456.085438261682, 2940.193169140002, 5229.145911830176, -11420.601477694689, -17307.536877100098, -16896.801220989375, 24975.325164237638, -12761.61673803529, -12484.61156900067, -8940.116636766987, 4034.5569294162906, -1508.4298263108524, -3182.396672057709, -0.39, 0.892, -0.366, 192.0, 0.0, 0.0, 0.0, 0.0, 0.0, 0.0, 0.0, 0.0, 0.0, 1.6730442472069716E9, 0.0, 2023-01-06 17:30:47.206
64.0, -15676.887712107626, -21854.46284466539, -32273.996743440242, -13383.419917037478, 3017.083170066258, 5286.031101468933, -11298.113918079605, -17290.437792591787, -16854.24349954647, 24981.270728262753, -12740.203766847108, -12485.930321923533, -8919.821252801568, 4063.2342175524495, -1504.9876576647353, -3190.622114017262, -0.39, 0.892, -0.366, 192.0, 0.0, 0.0, 0.0, 0.0, 0.0, 0.0, 0.0, 0.0, 0.0, 1.6730442472069793E9, 0.0, 2023-01-06 17:30:47.206
66.0, -15779.862198813225, -21955.448026114467, -32369.952782386874, -13474.100944292659, 2916.209747339457, 5212.940897100079, -11420.109739316671, -17342.092674028, -16910.413433362657, 24958.874280318534, -12791.456316883126, -12494.401633072095, -8962.982471344767, 4040.4130864635813, -1521.282079372654, -3201.999151945013, -0.39, 0.892, -0.366, 192.0, 0.0, 0.0, 0.0, 0.0, 0.0, 0.0, 0.0, 0.0, 0.0, 1.6730442472069871E9, 0.0, 2023-01-06 17:30:47.206
68.0, -15708.358968300698, -21879.876778111076, -32296.840226273565, -13402.79887948023, 2997.8383180902388, 5298.413967897173, -11349.969965215918, -17329.240420966198, -16904.646683293187, 24943.518631877738, -12804.666197856212, -12523.324790397262, -8961.77547714418, 4030.9806503034415, -1539.2305301702656, -3225.9602220011025, -0.38, 0.89, -0.348, 192.0, 122.0, 56.0, 13.5, 96.0, 122.5, 88.0, 0.0, 0.0, 0.0, 1.6730442472069988E9, 0.0, 2023-01-06 17:30:47.206
70.0, -15811.17699279511, -21970.647212344076, -32374.803110933677, -13479.532418195298, 2937.823884227739, 5221.546318715372, -11419.97562884994, -17362.969203349257, -16913.945008986593, 24950.447672658884, -12821.385302708783, -12508.103252423198, -8978.673395952392, 4027.94081305752, -1534.0449254566342, -3212.68328579465, -0.38, 0.89, -0.348, 192.0, 0.0, 0.0, 0.0, 0.0, 0.0, 0.0, 0.0, 0.0, 0.0, 1.673044247207021E9, 0.0, 2023-01-06 17:30:47.207
72.0, -15740.478425082974, -21890.516208471803, -32295.990859984264, -13401.211905623903, 2999.2241262464677, 5337.976555583067, -11341.744523256366, -17321.439662151297, -16932.54166037341, 24933.996788739776, -12845.324021020417, -12535.931174270056, -9007.93182944439, 4006.1925657025063, -1546.4054401404192, -3240.6229663637837, -0.38, 0.89, -0.348, 192.0, 0.0, 0.0, 0.0, 0.0, 0.0, 0.0, 0.0, 0.0, 0.0, 1.6730442472070289E9, 0.0, 2023-01-06 17:30:47.207
74.0, -15839.474301275528, -21978.5373781368, -32381.061599381163, -13474.391516970578, 2880.312845744234, 5238.421885779129, -11427.865794642663, -17379.77771517965, -16915.35316888728, 24951.16292848145, -12834.036390070485, -12509.578467557249, -8981.668529709403, 4031.8970718261094, -1519.4045328384082, -3204.100215923812, -0.38, 0.89, -0.348, 192.0, 0.0, 0.0, 0.0, 0.0, 0.0, 0.0, 0.0, 0.0, 0.0, 1.6730442472070367E9, 0.0, 2023-01-06 17:30:47.207
76.0, -15788.64643438416, -21914.410223294526, -32326.79156384368, -13414.466490085899, 2942.920081963549, 5302.727854577048, -11382.737622587398, -17348.99936306469, -16958.91671883067, 24911.9803204513, -12883.210227872161, -12557.187683247052, -9033.21165242334, 3972.3296728527157, -1577.0943852775558, -3258.9290450726803, -0.38, 0.89, -0.348, 192.0, 0.0, 0.0, 0.0, 0.0, 0.0, 0.0, 0.0, 0.0, 0.0, 1.6730442472070441E9, 0.0, 2023-01-06 17:30:47.207
78.0, -15872.912510980668, -21993.714212621955, -32399.07710541214, -13478.168961783525, 2866.6559298820416, 5259.544284289394, -11457.660670001587, -17351.703924143785, -16935.849718552796, 24944.79268131169, -12856.030506614508, -12524.91176425359, -9007.663608510926, 3999.5988010881906, -1554.4297163998745, -3220.7522655430157, -0.364, 0.882, -0.311, 192.0, 122.5, 16.0, 13.5, 40.0, 123.5, 56.0, 0.0, 0.0, 0.0, 1.6730442472070525E9, 0.0, 2023-01-06 17:30:47.207
80.0, -15830.019513370933, -21947.647267299566, -32348.07042456513, -13427.765778036808, 2932.012430669359, 5310.0815785028435, -11377.529666129312, -17337.13058675892, -16986.92345463317, 24887.88513992848, -12915.93318175473, -12579.561779446814, -9065.576978394625, 3954.2471115883723, -1619.3838857869966, -3284.7900134074707, -0.364, 0.882, -0.311, 192.0, 0.0, 0.0, 0.0, 0.0, 0.0, 0.0, 0.0, 0.0, 0.0, 1.6730442472070603E9, 0.0, 2023-01-06 17:30:47.207
82.0, -15874.767705770459, -21984.706459606467, -32371.807977176664, -13451.637441115075, 2913.773407193829, 5284.37707237924, -11394.896971571085, -17308.967388745237, -16938.621334865253, 24931.89572476098, -12858.69036420469, -12542.748456328924, -9001.36041657453, 4019.5365571423245, -1542.0021464827237, -3219.388809131242, -0.364, 0.882, -0.311, 192.0, 0.0, 0.0, 0.0, 0.0, 0.0, 0.0, 0.0, 0.0, 0.0, 1.6730442472070687E9, 0.0, 2023-01-06 17:30:47.207
84.0, -15869.38093535673, -21981.44310491599, -32371.673866709934, -13460.891063319572, 2911.2923635592897, 5281.404290366685, -11431.509128988879, -17371.82049415356, -16997.294664060435, 24876.083418856077, -12922.616353346868, -12601.175916335096, -9045.996850251777, 3959.902102935565, -1587.0409115601674, -3279.9843883495796, -0.364, 0.882, -0.311, 192.0, 0.0, 0.0, 0.0, 0.0, 0.0, 0.0, 0.0, 0.0, 0.0, 1.6730442472070768E9, 0.0, 2023-01-06 17:30:47.207
86.0, -15915.649046379216, -22023.062053091773, -32415.773858520253, -13495.67037769203, 2896.4955087298763, 5254.001051664478, -11448.74232396392, -17386.147962349412, -16977.84864638432, 24882.87834917049, -12905.494917094102, -12605.445099526061, -9024.40506510795, 3966.7640884833445, -1583.4869841917734, -3285.5723244634064, -0.364, 0.882, -0.311, 192.0, 0.0, 0.0, 0.0, 0.0, 0.0, 0.0, 0.0, 0.0, 0.0, 1.6730442472070844E9, 0.0, 2023-01-06 17:30:47.207
88.0, -15895.420717647163, -22004.420698216047, -32406.050849682197, -13483.712194408441, 2900.76469192084, 5283.9970927235, -11439.332239548236, -17410.846639972526, -17026.351931852332, 24832.788089846148, -12962.08953405494, -12638.54803306437, -9090.543876951204, 3902.9498580634427, -1645.624833777527, -3333.203891897666, -0.355, 0.883, -0.2595, 192.0, 122.5, 24.0, 13.5, 80.0, 124.5, 64.0, 0.0, 0.0, 0.0, 1.6730442472070932E9, 0.0, 2023-01-06 17:30:47.207
90.0, -15910.709310854592, -22021.40802400208, -32398.36184958957, -13465.607281399642, 2846.964043016916, 5258.426697066629, -11460.164065380583, -17384.560988493085, -16971.299585258912, 24872.551843232137, -12905.964303727664, -12605.78037569289, -9029.478911099304, 3946.6922219624785, -1589.633713916983, -3297.2399350690766, -0.355, 0.883, -0.2595, 192.0, 0.0, 0.0, 0.0, 0.0, 0.0, 0.0, 0.0, 0.0, 0.0, 1.6730442472071018E9, 0.0, 2023-01-06 17:30:47.207
92.0, -15914.352645200808, -22027.08536709373, -32409.895349728507, -13467.529531422799, 2843.4324673929773, 5253.017574908445, -11460.879321203152, -17408.522058549173, -17016.07012940289, 24832.96690380179, -12951.22658624966, -12615.950419420054, -9083.816001870156, 3920.004239082842, -1637.8017232181696, -3324.6208220268277, -0.355, 0.883, -0.2595, 192.0, 0.0, 0.0, 0.0, 0.0, 0.0, 0.0, 0.0, 0.0, 0.0, 1.6730442472071116E9, 0.0, 2023-01-06 17:30:47.207
94.0, -15911.156345743699, -22026.861849649176, -32407.771934005254, -13458.231205729391, 2840.4149818915107, 5267.143877404199, -11445.255451828893, -17366.366668506464, -16978.966233607083, 24845.48388069676, -12917.251934677593, -12603.835773925279, -9060.547835892181, 3947.139256851585, -1613.2818595506978, -3305.644190984272, -0.355, 0.883, -0.2595, 192.0, 0.0, 0.0, 0.0, 0.0, 0.0, 0.0, 0.0, 0.0, 0.0, 1.673044247207121E9, 0.0, 2023-01-06 17:30:47.207
96.0, -15906.328368941353, -22025.78896591532, -32405.60381479309, -13459.99699354136, 2847.098153483648, 5290.233229426531, -11458.286518846337, -17400.698947989815, -17012.449146801133, 24827.28956071014, -12953.081781039451, -12613.424672296605, -9095.170688053453, 3920.786550138778, -1628.8163219471362, -3315.4342550556967, -0.355, 0.883, -0.2595, 192.0, 0.0, 0.0, 0.0, 0.0, 0.0, 0.0, 0.0, 0.0, 0.0, 1.6730442472071457E9, 0.0, 2023-01-06 17:30:47.207
98.0, -15903.266179950975, -22022.458555991478, -32403.547454303203, -13456.33130745069, 2838.8503597796393, 5262.405307579674, -11447.669440230065, -17388.36078505049, -16968.41621022418, 24852.144700544442, -12910.79228053001, -12596.794974421857, -9064.660556871959, 3951.6319574871013, -1599.3120192661308, -3299.8550891703476, -0.3265, 0.8935, -0.20575, 192.0, 123.0, 88.0, 14.0, 32.0, 125.5, 32.0, 0.0, 0.0, 0.0, 1.6730442472071657E9, 0.0, 2023-01-06 17:30:47.207
100.0, -15915.738453357037, -22040.675227722553, -32412.868131741066, -13468.624766901108, 2821.438350848955, 5252.1458568746875, -11471.094068419226, -17397.927331677358, -17027.04483593045, 24806.278920922152, -12970.002051592119, -12634.07768417331, -9126.485482035338, 3900.133538262074, -1647.7035460118707, -3336.176673910222, -0.3265, 0.8935, -0.20575, 192.0, 0.0, 0.0, 0.0, 0.0, 0.0, 0.0, 0.0, 0.0, 0.0, 1.673044247207176E9, 0.0, 2023-01-06 17:30:47.207
102.0, -15864.508255065473, -21997.91634057955, -32361.92850612742, -13407.962132449406, 2886.3701684916223, 5307.622886612759, -11430.056265599284, -17355.079037556534, -16960.481340942544, 24846.95909583081, -12897.425937345737, -12587.876628384189, -9060.681946358913, 3943.1829980829953, -1584.1351847809774, -3287.4945744865627, -0.3265, 0.8935, -0.20575, 192.0, 0.0, 0.0, 0.0, 0.0, 0.0, 0.0, 0.0, 0.0, 0.0, 1.673044247207185E9, 0.0, 2023-01-06 17:30:47.207
104.0, -15881.13795294022, -22014.79190764331, -32382.134483115016, -13422.803690767729, 2823.092379938648, 5292.6472178277045, -11429.36336152117, -17404.856372458504, -16994.545399492432, 24833.2127729908, -12935.960344786687, -12597.487878499971, -9096.444737487405, 3937.0809718466967, -1619.3838857869966, -3302.22437408261, -0.3265, 0.8935, -0.20575, 192.0, 0.0, 0.0, 0.0, 0.0, 0.0, 0.0, 0.0, 0.0, 0.0, 1.6730442472071936E9, 0.0, 2023-01-06 17:30:47.207
106.0, -15808.763004393937, -21944.85329924265, -32324.377575442504, -13346.830111364141, 2886.6607411695413, 5390.212582375119, -11340.828101733698, -17245.823710658995, -16926.73020681503, 24876.910433400924, -12870.805009699467, -12552.940851800544, -9037.883167014501, 3997.162460942562, -1552.5298181211733, -3258.616120650306, -0.3265, 0.8935, -0.20575, 192.0, 0.0, 0.0, 0.0, 0.0, 0.0, 0.0, 0.0, 0.0, 0.0, 1.6730442472072012E9, 0.0, 2023-01-06 17:30:47.207
108.0, -15811.713434662037, -21948.429578355503, -32344.538848941193, -13353.02154457826, 2861.1350490015807, 5385.853992206335, -11329.719284739409, -17221.907344091815, -16926.93137251513, 24907.062936671133, -12872.727259722622, -12536.24409869243, -9040.274803671218, 4027.203205490495, -1549.6911465753492, -3217.06422770789, -0.30225, 0.8927499999999999, -0.157875, 192.0, 123.5, 40.0, 13.5, 112.0, 126.0, 72.0, 0.0, 0.0, 0.0, 1.6730442472072093E9, 0.0, 2023-01-06 17:30:47.207
110.0, -15747.340410630753, -21883.587167690657, -32300.86354027552, -13305.613494588553, 2910.4206455255326, 5458.228940752619, -11309.33449379617, -17161.11059917338, -16867.05104911936, 24948.167794724443, -12824.49219518807, -12519.033255461844, -8993.06791938161, 4085.183630607561, -1507.4463495548189, -3186.6435035042173, -0.30225, 0.8927499999999999, -0.157875, 192.0, 0.0, 0.0, 0.0, 0.0, 0.0, 0.0, 0.0, 0.0, 0.0, 1.6730442472072182E9, 0.0, 2023-01-06 17:30:47.207
112.0, -15793.139135019677, -21930.503479302344, -32363.78370091721, -13374.41216402199, 2876.8483253536615, 5398.102748167843, -11344.314973868726, -17236.905364621325, -16872.482523022, 24943.60803885556, -12838.506738961547, -12542.144959228632, -8987.34587280105, 4085.9435899190416, -1517.929317704358, -3183.6930732361166, -0.30225, 0.8927499999999999, -0.157875, 192.0, 0.0, 0.0, 0.0, 0.0, 0.0, 0.0, 0.0, 0.0, 0.0, 1.6730442472072265E9, 0.0, 2023-01-06 17:30:47.207
114.0, -15790.591036151773, -21929.452947312948, -32381.799206948188, -13395.691024743443, 2874.0767090412032, 5372.130021110776, -11365.839703779186, -17277.13850464088, -16897.561180300854, 24893.11544813102, -12884.819553472944, -12598.001968622442, -9026.081445942098, 4032.6570311375895, -1561.0681845031006, -3261.0748125403898, -0.30225, 0.8927499999999999, -0.157875, 192.0, 0.0, 0.0, 0.0, 0.0, 0.0, 0.0, 0.0, 0.0, 0.0, 1.6730442472072353E9, 0.0, 2023-01-06 17:30:47.207
116.0, -15833.238164572498, -21975.989279268895, -32436.851553541608, -13446.228318956892, 2813.883461223061, 5334.713200892592, -11401.155460018572, -17251.27753630609, -16916.090776454304, 24912.717928018326, -12902.611542059369, -12593.531619731382, -9050.221329953829, 4005.767882557855, -1581.2518097462428, -3267.6238736657947, -0.30225, 0.8927499999999999, -0.157875, 192.0, 0.0, 0.0, 0.0, 0.0, 0.0, 0.0, 0.0, 0.0, 0.0, 1.6730442472072449E9, 0.0, 2023-01-06 17:30:47.207
118.0, -15833.193461083587, -21982.20306422747, -32436.046890741218, -13454.945499294461, 2824.612298561609, 5322.106817019799, -11392.527686658823, -17275.618586017918, -16944.991582035014, 24878.87738691299, -12921.811690546476, -12630.903736460656, -9090.879153118034, 3977.4929258218917, -1610.5549467271503, -3314.808406210948, -0.260125, 0.8763749999999999, -0.1129375, 192.0, 124.5, 24.0, 13.0, 112.0, 126.5, 112.0, 0.0, 0.0, 0.0, 1.6730442472072532E9, 0.0, 2023-01-06 17:30:47.207
120.0, -15870.073839434845, -22018.12231756715, -32449.390882181036, -13460.33226970819, 2790.8164609451846, 5327.113607777787, -11398.964989061951, -17255.36790554141, -16958.134407774738, 24872.06010485412, -12923.733940569633, -12654.283661160907, -9093.427251985939, 3968.1275448951183, -1613.885356650991, -3309.578098008406, -0.260125, 0.8763749999999999, -0.1129375, 192.0, 0.0, 0.0, 0.0, 0.0, 0.0, 0.0, 0.0, 0.0, 0.0, 1.673044247207262E9, 0.0, 2023-01-06 17:30:47.207
122.0, -15849.130254880221, -21997.223436501437, -32416.75733527629, -13421.127309933581, 2810.7318652548634, 5338.647107916726, -11390.516029657845, -17254.339725296464, -16961.934204332138, 24864.281697783674, -12910.725225296645, -12659.938652508099, -9091.974388596343, 3983.8184695027435, -1628.1234178690218, -3315.769531222526, -0.260125, 0.8763749999999999, -0.1129375, 192.0, 0.0, 0.0, 0.0, 0.0, 0.0, 0.0, 0.0, 0.0, 0.0, 1.6730442475904803E9, 0.0, 2023-01-06 17:30:47.590
124.0, -15872.264310391463, -22005.605340672177, -32407.771934005254, -13402.642417269042, 2812.4529495779216, 5363.278730306474, -11380.748317330876, -17170.744201033616, -16945.036285523925, 24903.486657558282, -12868.301614320471, -12621.426596811605, -9067.923911562433, 4013.2780686948386, -1591.3547982400416, -3269.07673705539, -0.260125, 0.8763749999999999, -0.1129375, 192.0, 0.0, 0.0, 0.0, 0.0, 0.0, 0.0, 0.0, 0.0, 0.0, 1.673044247590515E9, 0.0, 2023-01-06 17:30:47.590
126.0, -15875.28179589293, -21999.637424902612, -32389.287041340714, -13390.281902585257, 2828.501502096832, 5357.064945347899, -11365.72794505691, -17173.761686535083, -16962.492997943522, 24899.709212745336, -12872.727259722622, -12597.823154666801, -9082.452545458382, 4001.141071455607, -1609.1020833375555, -3282.487783728574, -0.260125, 0.8763749999999999, -0.1129375, 192.0, 0.0, 0.0, 0.0, 0.0, 0.0, 0.0, 0.0, 0.0, 0.0, 1.6730442475905368E9, 0.0, 2023-01-06 17:30:47.590
128.0, -15905.903685796702, -22016.043605332805, -32389.532910529724, -13386.347995561124, 2807.1108826531035, 5353.8686458907905, -11335.19546213096, -17134.020284893548, -16965.10815204479, 24906.191218637374, -12866.02173638603, -12568.20709326352, -9071.634301142014, 4009.098292481696, -1586.7726906267037, -3271.7589463900267, -0.2640625, 0.9071875, -0.06846875, 192.0, 123.5, 80.0, 14.5, 40.0, 127.5, 32.0, 0.0, 0.0, 0.0, 1.6730442475905657E9, 0.0, 2023-01-06 17:30:47.590
130.0, -15885.608301831282, -21988.930939308517, -32374.669000466944, -13368.3548412746, 2813.503481567321, 5373.560532755916, -11335.307220853236, -17155.768532248563, -16967.522140445966, 24914.394308852472, -12869.240387587595, -12534.232441691453, -9075.74702212179, 4003.152728456584, -1600.2284407887985, -3265.83573410937, -0.2640625, 0.9071875, -0.06846875, 192.0, 0.0, 0.0, 0.0, 0.0, 0.0, 0.0, 0.0, 0.0, 0.0, 1.6730442475905936E9, 0.0, 2023-01-06 17:30:47.590
132.0, -15913.615037633783, -22007.92992209553, -32395.7466954883, -13395.400452065523, 2779.126498595059, 5335.875491604268, -11327.797034716254, -17173.560520834984, -16970.293756758423, 24910.50510531725, -12875.901207435276, -12537.42874114856, -9082.98898732531, 4000.0458359772965, -1588.7172923943153, -3276.0951848143563, -0.2640625, 0.9071875, -0.06846875, 192.0, 0.0, 0.0, 0.0, 0.0, 0.0, 0.0, 0.0, 0.0, 0.0, 1.6730442475906303E9, 0.0, 2023-01-06 17:30:47.590
134.0, -15919.873526081268, -22016.490640221913, -32409.247149139304, -13420.188536666457, 2805.5686122856873, 5309.43337791364, -11390.605436635666, -17232.636181430364, -16987.50459998901, 24894.367145820517, -12899.281132135528, -12541.541462128338, -9102.412653256972, 3990.5016410948806, -1608.2303653037984, -3303.7889961944816, -0.2640625, 0.9071875, -0.06846875, 192.0, 0.0, 0.0, 0.0, 0.0, 0.0, 0.0, 0.0, 0.0, 0.0, 1.6730442475906377E9, 0.0, 2023-01-06 17:30:47.590
136.0, -15920.208802248098, -22012.26616051986, -32407.88369272753, -13417.238106398358, 2793.2080976019024, 5315.736569850036, -11353.926223984507, -17178.50025635961, -16985.582349965855, 24869.422599008394, -12900.152850169285, -12556.9641658025, -9110.526336494248, 3970.3850710851043, -1617.3498770415638, -3315.5683655224284, -0.2640625, 0.9071875, -0.06846875, 192.0, 0.0, 0.0, 0.0, 0.0, 0.0, 0.0, 0.0, 0.0, 0.0, 1.6730442475906453E9, 0.0, 2023-01-06 17:30:47.590
138.0, -15903.489697395527, -21996.26231148986, -32404.26271012577, -13421.887269245062, 2795.3985685585226, 5308.159328479687, -11344.314973868726, -17199.39913742532, -16966.292794500925, 24877.268061312207, -12892.8438297324, -12541.787331317346, -9112.537993495225, 3965.6912047494898, -1616.3887520299857, -3299.810385681437, -0.2640625, 0.9071875, -0.06846875, 192.0, 0.0, 0.0, 0.0, 0.0, 0.0, 0.0, 0.0, 0.0, 0.0, 1.6730442475906527E9, 0.0, 2023-01-06 17:30:47.590
140.0, -15907.043624763923, -21996.552884167777, -32414.36569861957, -13432.392589139055, 2786.12259460957, 5300.671494087159, -11359.5812153317, -17208.45159392972, -16951.607698393786, 24868.081494341077, -12880.907998193265, -12554.952508801522, -9098.478746232837, 3956.2811203338056, -1615.047647362667, -3310.4721677866182, -0.268, 0.9400000000000001, -0.004, 192.0, 123.5, 80.0, 14.5, 48.0, 127.5, 112.0, 0.0, 0.0, 0.0, 1.67304424759066E9, 0.0, 2023-01-06 17:30:47.590
142.0, -15910.86577306578, -21993.44599168849, -32420.177152177952, -13444.618993356109, 2789.8776876780616, 5311.534441892439, -11357.077819952705, -17235.877184376383, -16971.21017828109, 24855.184537790363, -12900.085794935918, -12567.134209529664, -9105.854821903089, 3935.8292741571995, -1631.4538277928625, -3325.358429593853, -0.268, 0.9400000000000001, -0.004, 192.0, 0.0, 0.0, 0.0, 0.0, 0.0, 0.0, 0.0, 0.0, 0.0, 1.6730442475906684E9, 0.0, 2023-01-06 17:30:47.590
144.0, -15931.183508775654, -22003.616035415656, -32428.46964937087, -13454.18553998298, 2782.054577118704, 5292.893087016712, -11350.14877917156, -17209.815050341494, -16968.729134646554, 24841.99700856173, -12893.961416955164, -12579.9194073581, -9092.46612697436, 3935.5610532237356, -1621.0826183656, -3331.281641874509, -0.268, 0.9400000000000001, -0.004, 192.0, 0.0, 0.0, 0.0, 0.0, 0.0, 0.0, 0.0, 0.0, 0.0, 1.6730442475906754E9, 0.0, 2023-01-06 17:30:47.590
146.0, -15915.000845790011, -21982.806561327765, -32409.515370072768, -13447.167092224014, 2792.9175249239834, 5283.684168301126, -11331.015685917817, -17207.512820662596, -16977.088687072835, 24846.48970919725, -12903.013873459564, -12579.830000380278, -9096.064757831664, 3915.422131469504, -1625.5753190011167, -3331.683973274705, -0.268, 0.9400000000000001, -0.004, 192.0, 0.0, 0.0, 0.0, 0.0, 0.0, 0.0, 0.0, 0.0, 0.0, 1.6730442475906827E9, 0.0, 2023-01-06 17:30:47.590
148.0, -15911.089290510332, -21976.883349047108, -32399.32297460115, -13453.358525438134, 2806.283868108257, 5280.756089777481, -11323.52785152529, -17203.154230493812, -16946.35503844679, 24842.15347077292, -12874.627158001324, -12584.881494627178, -9070.60612089707, 3919.6242594271016, -1599.759054155237, -3332.8239122419254, -0.268, 0.9400000000000001, -0.004, 192.0, 0.0, 0.0, 0.0, 0.0, 0.0, 0.0, 0.0, 0.0, 0.0, 1.6730442475906887E9, 0.0, 2023-01-06 17:30:47.590
150.0, -15912.34098819983, -21974.26819494584, -32396.350192588594, -13460.75695285284, 2803.0205134177822, 5266.875656470735, -11372.880503282608, -17240.79456815655, -16953.77581760595, 24833.659807879903, -12884.953663939676, -12598.449003511549, -9079.859743101566, 3909.8118436112222, -1603.245926290265, -3332.6898017751937, -0.34, 0.928, 0.01, 192.0, 122.5, 48.0, 14.5, 0.0, 0.0, 40.0, 0.0, 0.0, 0.0, 1.6730442475906947E9, 0.0, 2023-01-06 17:30:47.590
152.0, -15879.52862733944, -21930.369368835614, -32350.439709477392, -13417.729844776375, 2846.2711389388014, 5309.9027645472015, -11325.472453292901, -17186.390422152333, -16923.489203869012, 24838.465432937795, -12852.677744946212, -12587.742517917457, -9055.608100367559, 3919.333686749183, -1589.5219551947064, -3320.932784191702, -0.34, 0.928, 0.01, 192.0, 0.0, 0.0, 0.0, 0.0, 0.0, 0.0, 0.0, 0.0, 0.0, 1.6730442475907009E9, 0.0, 2023-01-06 17:30:47.590
154.0, -15879.23805466152, -21922.926237931995, -32352.920753111932, -13430.22446992689, 2829.283813152768, 5305.745340078514, -11310.541487996756, -17188.804410553505, -16906.881857738717, 24861.77830240468, -12836.87506161631, -12563.356764716716, -9038.844292026079, 3938.913814892032, -1572.3558154530306, -3283.739481418071, -0.34, 0.928, 0.01, 192.0, 0.0, 0.0, 0.0, 0.0, 0.0, 0.0, 0.0, 0.0, 0.0, 1.6730442475907068E9, 0.0, 2023-01-06 17:30:47.590
156.0, -15886.591778587315, -21919.86404894162, -32370.26570680925, -13455.124313250104, 2828.3450398856453, 5284.0194444679555, -11321.225621846394, -17227.696445905738, -16905.67486353813, 24843.271057995687, -12841.59127969638, -12584.72503241599, -9035.335068146594, 3924.385180996082, -1574.8145073431144, -3305.0630456284343, -0.34, 0.928, 0.01, 192.0, 0.0, 0.0, 0.0, 0.0, 0.0, 0.0, 0.0, 0.0, 0.0, 1.6730442475907128E9, 0.0, 2023-01-06 17:30:47.590
158.0, -15893.185543201631, -21914.142002361063, -32386.448369794893, -13467.730697122895, 2818.5996793031313, 5292.423700383151, -11330.90392719554, -17238.917021622303, -16924.271514924945, 24835.962037558802, -12870.11210562135, -12611.077739128797, -9058.893806802489, 3928.453198486948, -1587.6891121493713, -3307.901717174258, -0.34, 0.928, 0.01, 192.0, 0.0, 0.0, 0.0, 0.0, 0.0, 0.0, 0.0, 0.0, 0.0, 1.6730442475907185E9, 0.0, 2023-01-06 17:30:47.590
160.0, -15899.57814211585, -21912.912656416018, -32406.9002159715, -13479.152438539559, 2806.328571597168, 5270.675453028137, -11358.463628108935, -17284.80515298905, -16915.308465398368, 24833.525697413173, -12879.83511445941, -12631.551937049859, -9067.856856329066, 3913.835157613177, -1595.1992982863544, -3337.450723344174, -0.308, 0.882, -0.006, 192.0, 123.0, 48.0, 13.5, 72.0, 127.5, 104.0, 0.0, 0.0, 0.0, 1.6730442475907245E9, 0.0, 2023-01-06 17:30:47.590
162.0, -15903.556752628894, -21920.042862897262, -32425.22864642485, -13477.140781538581, 2793.4986702798215, 5285.964046235567, -11360.095305454171, -17268.26486209212, -16926.082006225828, 24834.44211893584, -12896.263646634061, -12655.177730939118, -9093.114327563564, 3898.4124539390154, -1618.0427811196782, -3335.7519907655706, -0.308, 0.882, -0.006, 192.0, 0.0, 0.0, 0.0, 0.0, 0.0, 0.0, 0.0, 0.0, 0.0, 1.6730442475907304E9, 0.0, 2023-01-06 17:30:47.590
164.0, -15854.315859593853, -21874.17708327497, -32385.621355250045, -13429.218641426402, 2843.186598203969, 5339.049439316922, -11319.616296245611, -17237.531213466074, -16896.421241333635, 24833.838621835544, -12865.552349752468, -12686.090193520808, -9077.959844822866, 3929.9284136209985, -1610.3984845159632, -3312.8861561877916, -0.308, 0.882, -0.006, 192.0, 0.0, 0.0, 0.0, 0.0, 0.0, 0.0, 0.0, 0.0, 0.0, 1.6730442475907378E9, 0.0, 2023-01-06 17:30:47.590
166.0, -15815.423824241618, -21838.637809591033, -32332.603017402056, -13375.820323922673, 2878.2341335098904, 5394.347655099351, -11268.22963574286, -17172.577044078953, -16849.57198495531, 24878.944442146356, -12815.707959617133, -12702.965760584566, -9023.399236607462, 4002.3480656561933, -1557.4919053902515, -3250.4353821796635, -0.308, 0.882, -0.006, 192.0, 0.0, 0.0, 0.0, 0.0, 0.0, 0.0, 0.0, 0.0, 0.0, 1.6730442475907435E9, 0.0, 2023-01-06 17:30:47.590
168.0, -15760.237367181466, -21785.73123046532, -32272.499176561738, -13330.312172211668, 2952.7101460349736, 5427.294126426474, -11211.836184482121, -17141.61987800835, -16799.682891331064, 24906.235922126285, -12761.773200246478, -12707.436109475626, -8960.412020732407, 4054.8523133817093, -1499.2656110841765, -3214.717294540083, -0.308, 0.882, -0.006, 192.0, 0.0, 0.0, 0.0, 0.0, 0.0, 0.0, 0.0, 0.0, 0.0, 1.6730442475907495E9, 0.0, 2023-01-06 17:30:47.590
170.0, -15758.091599713756, -21783.093724619597, -32260.20571711132, -13326.758244843275, 2971.507963121887, 5436.190120719686, -11213.892544972008, -17101.319682755435, -16758.5556815333, 24961.66824837545, -12708.129013553742, -12707.078481564342, -8895.748424023202, 4103.869688972198, -1434.3561451859648, -3160.8942938917035, -0.314, 0.844, -0.026000000000000002, 192.0, 123.0, 24.0, 13.0, 48.0, 127.5, 24.0, 0.0, 0.0, 0.0, 1.6730442475907557E9, 0.0, 2023-01-06 17:30:47.590
172.0, -15792.021547796912, -21815.32494012415, -32287.49719709125, -13365.158541817493, 2939.053230172781, 5392.425405076195, -11258.66308911599, -17152.751046747097, -16786.27184465788, 24949.866527303046, -12726.837423662833, -12683.922074308644, -8918.703665578803, 4067.1457728321284, -1459.0995262979898, -3200.747454255516, -0.314, 0.844, -0.026000000000000002, 192.0, 0.0, 0.0, 0.0, 0.0, 0.0, 0.0, 0.0, 0.0, 0.0, 1.6730442475907617E9, 0.0, 2023-01-06 17:30:47.590
174.0, -15837.79792044138, -21856.94388829993, -32316.66622360542, -13390.930103174462, 2894.3273895177117, 5361.423535516684, -11299.812650658208, -17155.567366548465, -16827.84608934475, 24925.525477591214, -12755.04532516543, -12685.50904816497, -8951.62778516147, 4031.2488712369054, -1489.6767127128498, -3226.9884022460465, -0.314, 0.844, -0.026000000000000002, 192.0, 0.0, 0.0, 0.0, 0.0, 0.0, 0.0, 0.0, 0.0, 0.0, 1.6730442475907676E9, 0.0, 2023-01-06 17:30:47.590
176.0, -15850.091379891799, -21876.076981553673, -32329.764345856234, -13406.50926905981, 2876.8036218647508, 5328.633526400748, -11337.967078443418, -17200.87435255937, -16848.56615645482, 24896.669375499416, -12773.463162596603, -12675.718984093546, -8987.949369901344, 3993.4073678740706, -1518.1751868933663, -3259.912521828714, -0.314, 0.844, -0.026000000000000002, 192.0, 0.0, 0.0, 0.0, 0.0, 0.0, 0.0, 0.0, 0.0, 0.0, 1.6730442475907733E9, 0.0, 2023-01-06 17:30:47.590
178.0, -15856.036943916912, -21886.9175776145, -32336.000482559262, -13398.84262071164, 2860.062165267726, 5312.1379389927315, -11367.29256716878, -17199.68971010324, -16854.08703733528, 24883.861825926524, -12783.677909812679, -12694.025062802442, -9005.629599765492, 3962.874884948121, -1539.5211028481845, -3277.4809929705852, -0.314, 0.844, -0.026000000000000002, 192.0, 0.0, 0.0, 0.0, 0.0, 0.0, 0.0, 0.0, 0.0, 0.0, 1.6730442475907793E9, 0.0, 2023-01-06 17:30:47.590
180.0, -15845.598679256284, -21879.966185088895, -32327.864447577533, -13391.533600274755, 2870.835706095184, 5303.554869121894, -11382.983491776407, -17227.22705927218, -16851.337772767278, 24887.862788184022, -12779.67694755518, -12672.545036380892, -9007.39538757746, 3975.749489754378, -1546.3383849070533, -3280.3196645164094, -0.3, 0.85, -0.052000000000000005, 192.0, 123.0, 80.0, 13.0, 72.0, 127.0, 48.0, 0.0, 0.0, 0.0, 1.6730442475907853E9, 0.0, 2023-01-06 17:30:47.590
182.0, -15857.847435217791, -21889.733897415867, -32336.760441870745, -13388.784335706752, 2862.722022857907, 5291.440223627117, -11386.604474378166, -17208.83157358546, -16858.44562750407, 24880.754933447235, -12779.140505688252, -12685.374937698238, -9010.882259712489, 3983.88552473611, -1545.2431494287432, -3284.164164562722, -0.3, 0.85, -0.052000000000000005, 192.0, 0.0, 0.0, 0.0, 0.0, 0.0, 0.0, 0.0, 0.0, 0.0, 1.6730442475907912E9, 0.0, 2023-01-06 17:30:47.590
184.0, -15850.9407461811, -21884.36947874659, -32333.027700546707, -13386.906789172506, 2875.7754416198068, 5278.006825209478, -11385.933922044507, -17226.31063774951, -16844.85576687524, 24906.437087826384, -12769.082220683364, -12653.099018704776, -8995.92894267189, 4002.482176122925, -1539.0070127257125, -3266.4168794652082, -0.3, 0.85, -0.052000000000000005, 192.0, 0.0, 0.0, 0.0, 0.0, 0.0, 0.0, 0.0, 0.0, 0.0, 1.6730442475907972E9, 0.0, 2023-01-06 17:30:47.590
186.0, -15867.056353933378, -21895.34418527415, -32346.326988497614, -13391.98063516386, 2861.112697257125, 5276.173982164143, -11393.421756437036, -17217.816974856494, -16862.111313594738, 24865.30987802862, -12788.774107548488, -12689.666472633657, -9006.411910821427, 3978.655216533568, -1563.3704141819971, -3289.908562887736, -0.3, 0.85, -0.052000000000000005, 192.0, 0.0, 0.0, 0.0, 0.0, 0.0, 0.0, 0.0, 0.0, 0.0, 1.6730442475908031E9, 0.0, 2023-01-06 17:30:47.590
188.0, -15857.199234628588, -21892.05847883922, -32335.97813081481, -13379.575416991165, 2875.6189794086195, 5273.670586785149, -11398.719119872943, -17228.858736617414, -16859.451456004557, 24900.15624763444, -12779.72165104409, -12654.976565239022, -9003.483832297783, 3998.7941382877993, -1555.9943385117458, -3264.0922980418563, -0.3, 0.85, -0.052000000000000005, 192.0, 0.0, 0.0, 0.0, 0.0, 0.0, 0.0, 0.0, 0.0, 0.0, 1.673044247590809E9, 0.0, 2023-01-06 17:30:47.590
190.0, -15863.27890912043, -21900.23921730986, -32326.6798051214, -13363.772733661262, 2875.6189794086195, 5280.510220588472, -11386.336253444702, -17191.531323377054, -16851.04720008936, 24884.30886081563, -12772.166761418195, -12658.195216440585, -9007.976532933299, 3978.029367688819, -1553.0662599881007, -3268.4732399550967, -0.304, 0.872, -0.078, 192.0, 123.0, 64.0, 13.5, 32.0, 126.5, 72.0, 0.0, 0.0, 0.0, 1.6730442475908148E9, 0.0, 2023-01-06 17:30:47.590
192.0, -15864.977641699033, -21908.375252291593, -32318.409659672936, -13360.308213270691, 2864.8230868367064, 5265.221627381043, -11389.06316626825, -17208.183372996256, -16845.928650609094, 24902.391422079974, -12763.784857247456, -12620.934858433588, -8997.247695594751, 3999.93407725502, -1529.5969283100283, -3238.3430884293425, -0.304, 0.872, -0.078, 192.0, 0.0, 0.0, 0.0, 0.0, 0.0, 0.0, 0.0, 0.0, 0.0, 1.6730442475908208E9, 0.0, 2023-01-06 17:30:47.590
194.0, -15884.267197163965, -21930.86110721363, -32322.365918441526, -13361.828131893652, 2862.4538019244437, 5271.61422629526, -11404.77644262033, -17198.77328858057, -16869.91207240964, 24867.88032864098, -12782.627377823279, -12654.417771627639, -9015.620829537014, 3979.057547933763, -1547.277158174176, -3273.032995823979, -0.304, 0.872, -0.078, 192.0, 0.0, 0.0, 0.0, 0.0, 0.0, 0.0, 0.0, 0.0, 0.0, 1.6730442475908267E9, 0.0, 2023-01-06 17:30:47.590
196.0, -15887.53055185444, -21938.05836892824, -32316.66622360542, -13356.195492290914, 2876.04366255327, 5262.606473279771, -11402.608323408167, -17211.223210242177, -16861.23959556098, 24901.296186601663, -12773.150238174228, -12615.928067675599, -9005.11550964302, 4014.552118128791, -1524.4560270853076, -3234.4985883830295, -0.304, 0.872, -0.078, 192.0, 0.0, 0.0, 0.0, 0.0, 0.0, 0.0, 0.0, 0.0, 0.0, 1.6730442475908349E9, 0.0, 2023-01-06 17:30:47.590
198.0, -15899.779307815947, -21952.743465035375, -32323.952892297853, -13363.906844127994, 2858.6540053670415, 5251.743525474492, -11412.68896015751, -17241.2192513012, -16874.963566656537, 24860.280735526176, -12786.136601702763, -12644.918280234133, -9021.655800539947, 3999.0176557323525, -1544.505541861718, -3266.0592515539233, -0.304, 0.872, -0.078, 192.0, 0.0, 0.0, 0.0, 0.0, 0.0, 0.0, 0.0, 0.0, 0.0, 1.673044247590841E9, 0.0, 2023-01-06 17:30:47.590
200.0, -15897.566485114872, -21953.034037713296, -32322.20945623034, -13361.962242360383, 2862.386746691078, 5266.808601237369, -11435.621849968655, -17206.059957273003, -16872.795447444376, 24888.913320173422, -12781.800363278433, -12614.49755603046, -9017.274858626706, 4007.734836069922, -1555.9049315339246, -3255.8892078267586, -0.302, 0.91, -0.094, 192.0, 123.0, 72.0, 14.0, 56.0, 126.5, 8.0, 0.0, 0.0, 0.0, 1.6730442475908473E9, 0.0, 2023-01-06 17:30:47.590
202.0, -15912.989188789034, -21970.87072978863, -32326.098659765565, -13367.840751152129, 2851.7696680748068, 5235.22558632202, -11424.624791696644, -17226.444748216243, -16885.82651446182, 24842.801671362125, -12800.06173849842, -12645.36531512324, -9036.07267571362, 3963.2548646038613, -1587.0409115601674, -3284.8794203852917, -0.302, 0.91, -0.094, 192.0, 0.0, 0.0, 0.0, 0.0, 0.0, 0.0, 0.0, 0.0, 0.0, 1.6730442475908532E9, 0.0, 2023-01-06 17:30:47.590
204.0, -15897.43237464814, -21958.48786336039, -32300.707078064333, -13338.135282771025, 2878.8152788657285, 5247.161417861154, -11391.499506413878, -17234.714893664706, -16864.167674084627, 24883.459494526327, -12785.980139491576, -12605.869782670712, -9019.800605750157, 3988.0429492047965, -1549.4005738974304, -3252.469390925097, -0.302, 0.91, -0.094, 192.0, 0.0, 0.0, 0.0, 0.0, 0.0, 0.0, 0.0, 0.0, 0.0, 1.673044247590859E9, 0.0, 2023-01-06 17:30:47.590
206.0, -15916.051377779411, -21975.318726935235, -32318.230845717295, -13351.456922466388, 2857.1340867440804, 5226.240185050987, -11413.247753768892, -17211.69259687574, -16876.617595746233, 24845.90856384141, -12798.63122685328, -12617.090358387275, -9041.302983916163, 3980.7339287679115, -1548.506504119218, -3265.299292242443, -0.302, 0.91, -0.094, 192.0, 0.0, 0.0, 0.0, 0.0, 0.0, 0.0, 0.0, 0.0, 0.0, 1.673044247590865E9, 0.0, 2023-01-06 17:30:47.590
208.0, -15895.823049047358, -21949.77068302282, -32302.450514131848, -13333.35200945759, 2889.789985393284, 5247.653156239171, -11389.39844243508, -17208.74216660764, -16863.921804895617, 24885.672317227403, -12791.791593049955, -12585.73086091648, -9031.043533211176, 4004.5608883572686, -1538.2917569031426, -3240.5335593859627, -0.302, 0.91, -0.094, 192.0, 0.0, 0.0, 0.0, 0.0, 0.0, 0.0, 0.0, 0.0, 0.0, 1.6730442475908709E9, 0.0, 2023-01-06 17:30:47.590
210.0, -15920.991113304033, -21975.095209490682, -32332.759479613243, -13360.755248159796, 2846.807580805729, 5212.8738418667135, -11418.45571022698, -17280.46891456472, -16866.022868874417, 24853.843433123046, -12806.67785485719, -12608.283771071885, -9047.159140963453, 3985.204277658973, -1561.895199047947, -3272.094222556856, -0.275, 0.924, -0.093, 192.0, 124.0, 32.0, 14.5, 40.0, 126.5, 16.0, 0.0, 0.0, 0.0, 1.6730442475908768E9, 0.0, 2023-01-06 17:30:47.590
212.0, -15899.511086882483, -21953.414017369036, -32314.45340090435, -13332.569698401654, 2881.542191689276, 5255.856246454268, -11389.018462779339, -17194.392346667333, -16859.987897871484, 24879.50323575774, -12809.6729886142, -12591.072927841298, -9042.197053694374, 3998.3694551431486, -1556.3072629341202, -3260.4042602067307, -0.275, 0.924, -0.093, 192.0, 0.0, 0.0, 0.0, 0.0, 0.0, 0.0, 0.0, 0.0, 0.0, 1.6730442475908828E9, 0.0, 2023-01-06 17:30:47.590
214.0, -15918.554773158405, -21974.44700890148, -32341.990750073288, -13358.900053370005, 2841.733734814374, 5259.432525567117, -11425.608268452677, -17165.268023642067, -16867.319270052823, 24857.844395380547, -12817.272581729005, -12599.745404689957, -9055.585748623103, 3972.106155408163, -1558.2965681906426, -3247.194379233644, -0.275, 0.924, -0.093, 192.0, 0.0, 0.0, 0.0, 0.0, 0.0, 0.0, 0.0, 0.0, 0.0, 1.6730442475908887E9, 0.0, 2023-01-06 17:30:47.590
216.0, -15894.079612979844, -21951.268249901324, -32322.38827018598, -13335.006038547283, 2874.0767090412032, 5270.18371465012, -11398.585009406212, -17153.01926768056, -16858.602089715256, 24879.25736656873, -12815.305628216938, -12594.045709853854, -9045.728629318313, 3988.735853282911, -1557.5142571347067, -3234.1409604717446, -0.275, 0.924, -0.093, 192.0, 0.0, 0.0, 0.0, 0.0, 0.0, 0.0, 0.0, 0.0, 0.0, 1.673044248060528E9, 0.0, 2023-01-06 17:30:48.060
218.0, -15912.542153899927, -21969.10494197666, -32339.889686094488, -13367.17019881847, 2857.514066399821, 5235.404400277663, -11424.267163785358, -17206.439936928742, -16868.213339831036, 24867.321535029598, -12816.445567184159, -12596.213829066019, -9052.858835799556, 3985.852478248177, -1563.6386351154608, -3259.554893917429, -0.275, 0.924, -0.093, 192.0, 0.0, 0.0, 0.0, 0.0, 0.0, 0.0, 0.0, 0.0, 0.0, 1.6730442480606213E9, 0.0, 2023-01-06 17:30:48.060
220.0, -15910.083462009843, -21963.226433184915, -32334.435860447393, -13360.397620248512, 2860.5539036457426, 5244.747429459981, -11424.73655041892, -17174.476942357654, -16865.687592707585, 24873.781189177178, -12814.188040994173, -12600.885343657177, -9050.020164253732, 3980.1080799231627, -1570.7911933411592, -3272.004815579035, -0.2625, 0.929, -0.0955, 192.0, 124.0, 24.0, 14.5, 24.0, 126.0, 120.0, 0.0, 0.0, 0.0, 1.673044248060672E9, 0.0, 2023-01-06 17:30:48.060
222.0, -15912.29628471092, -21965.43925588599, -32336.7827936152, -13372.69107969893, 2866.1194880151143, 5233.07981885431, -11433.990172623417, -17177.852055770403, -16869.554444498353, 24867.388590262963, -12809.784747336478, -12595.990311621466, -9047.650879341469, 3975.2130478874506, -1570.1429927519553, -3274.396452235753, -0.2625, 0.929, -0.0955, 192.0, 0.0, 0.0, 0.0, 0.0, 0.0, 0.0, 0.0, 0.0, 0.0, 1.673044248060678E9, 0.0, 2023-01-06 17:30:48.060
224.0, -15900.516915382972, -21947.759026021842, -32318.834342817587, -13356.597823691109, 2855.0553745097372, 5237.2372433229975, -11438.371114536658, -17153.980392692138, -16878.53984576939, 24884.934709660378, -12807.571924635402, -12600.505364001438, -9034.865681513034, 3976.5988560436795, -1560.4870391472625, -3274.7987836359484, -0.2625, 0.929, -0.0955, 192.0, 0.0, 0.0, 0.0, 0.0, 0.0, 0.0, 0.0, 0.0, 0.0, 1.6730442480606835E9, 0.0, 2023-01-06 17:30:48.060
226.0, -15913.01154053349, -21959.471340116423, -32340.604941917056, -13384.425745537967, 2857.737583844374, 5229.771760674926, -11463.65093751561, -17187.172733208266, -16877.891645180185, 24894.791828965168, -12801.738119332567, -12583.808610893324, -9029.434207610395, 3971.904989708065, -1558.6094926130168, -3278.263304026521, -0.2625, 0.929, -0.0955, 192.0, 0.0, 0.0, 0.0, 0.0, 0.0, 0.0, 0.0, 0.0, 0.0, 1.6730442480606897E9, 0.0, 2023-01-06 17:30:48.060
228.0, -15899.466383393574, -21938.036017183786, -32329.652587133958, -13367.728992429853, 2853.960139031427, 5232.208100820554, -11438.415818025567, -17148.101883900392, -16906.16660191615, 24871.143683331455, -12824.514546932525, -12613.8270036968, -9049.863702042545, 3945.3734690396154, -1581.5870859130725, -3304.5042520170514, -0.2625, 0.929, -0.0955, 192.0, 0.0, 0.0, 0.0, 0.0, 0.0, 0.0, 0.0, 0.0, 0.0, 1.6730442480607035E9, 0.0, 2023-01-06 17:30:48.060
230.0, -15908.965874787078, -21948.608392311144, -32340.35907272805, -13385.722146716374, 2843.566577859709, 5211.197461032565, -11452.02803039885, -17184.535227362543, -16880.663261492642, 24907.80054423816, -12801.715767588112, -12577.8183433793, -9023.712161029836, 3983.840821247199, -1560.6211496139945, -3290.6685221992166, -0.26225, 0.9245000000000001, -0.10175000000000001, 192.0, 123.5, 104.0, 14.0, 96.0, 126.0, 80.0, 0.0, 0.0, 0.0, 1.6730442480607092E9, 0.0, 2023-01-06 17:30:48.060
232.0, -15898.214685704075, -21927.284828100783, -32330.479601678802, -13365.35970751759, 2854.854208809639, 5226.016667606434, -11442.260318071882, -17168.263157399077, -16908.62529380623, 24864.25934603922, -12836.293916260473, -12624.779358479902, -9059.542007391692, 3956.3034720782607, -1603.3800367569968, -3325.1796156382106, -0.26225, 0.9245000000000001, -0.10175000000000001, 192.0, 0.0, 0.0, 0.0, 0.0, 0.0, 0.0, 0.0, 0.0, 0.0, 1.6730442480607147E9, 0.0, 2023-01-06 17:30:48.060
234.0, -15912.609209133294, -21939.377121851103, -32347.802203631665, -13387.018547894782, 2861.8056013352398, 5205.430710963096, -11455.179626367048, -17204.093003760936, -16880.283281836902, 24906.97352969331, -12808.331883946883, -12569.928177586578, -9029.769483777223, 3991.328655639727, -1577.7202341223044, -3299.5645164924285, -0.26225, 0.9245000000000001, -0.10175000000000001, 192.0, 0.0, 0.0, 0.0, 0.0, 0.0, 0.0, 0.0, 0.0, 0.0, 1.6730442480607207E9, 0.0, 2023-01-06 17:30:48.060
236.0, -15919.62765689226, -21934.5267933043, -32344.82942161911, -13379.776582691264, 2851.0991157411477, 5238.377182290218, -11441.545062249312, -17108.941627614695, -16922.438671879612, 24861.0183430932, -12848.96735536663, -12631.708399261046, -9057.955033535365, 3959.6562337465566, -1613.6394874619828, -3323.033848170501, -0.26225, 0.9245000000000001, -0.10175000000000001, 192.0, 0.0, 0.0, 0.0, 0.0, 0.0, 0.0, 0.0, 0.0, 0.0, 1.6730442480607264E9, 0.0, 2023-01-06 17:30:48.060
238.0, -15900.695729338615, -21911.549200004247, -32320.242502718273, -13365.180893561948, 2884.3585114906446, 5249.731868473515, -11415.818204381252, -17113.233162550114, -16891.839133720296, 24921.949198478367, -12815.305628216938, -12574.756154388924, -9015.598477792559, 4010.1711762155505, -1565.1138502495112, -3269.009681822024, -0.26225, 0.9245000000000001, -0.10175000000000001, 192.0, 0.0, 0.0, 0.0, 0.0, 0.0, 0.0, 0.0, 0.0, 0.0, 1.673044248060732E9, 0.0, 2023-01-06 17:30:48.060
240.0, -15936.704389656114, -21941.366427107627, -32354.239506034795, -13398.060309655704, 2842.1360662145694, 5228.408304263152, -11452.922100177062, -17110.528601471022, -16912.559200830365, 24885.64996548295, -12837.836186627888, -12623.572364279315, -9031.311754144639, 3962.383146570104, -1577.9661033113127, -3297.2846385579874, -0.269125, 0.9152500000000001, -0.111875, 192.0, 123.5, 48.0, 14.0, 40.0, 126.0, 24.0, 0.0, 0.0, 0.0, 1.673044248060738E9, 0.0, 2023-01-06 17:30:48.060
242.0, -15915.112604512287, -21912.6220837381, -32338.25800874925, -13383.218751337381, 2873.0708805407144, 5237.259595067453, -11420.489718972412, -17112.696720683183, -16930.73116907253, 24900.290358101174, -12850.800198411966, -12598.292541300361, -9042.845254283578, 3978.6328647891123, -1592.2935715071646, -3297.46345251363, -0.269125, 0.9152500000000001, -0.111875, 192.0, 0.0, 0.0, 0.0, 0.0, 0.0, 0.0, 0.0, 0.0, 0.0, 1.6730442480607436E9, 0.0, 2023-01-06 17:30:48.060
244.0, -15914.9561423011, -21906.00596737933, -32331.48543017929, -13372.802838421207, 2852.7754965752956, 5235.091475855288, -11423.753073662887, -17056.504435122544, -16921.142270701203, 24884.241805582264, -12844.362896008837, -12618.520870032415, -9035.424475124417, 3986.813603259755, -1580.8047748571366, -3288.522754731507, -0.269125, 0.9152500000000001, -0.111875, 192.0, 0.0, 0.0, 0.0, 0.0, 0.0, 0.0, 0.0, 0.0, 0.0, 1.6730442480607505E9, 0.0, 2023-01-06 17:30:48.060
246.0, -15900.807488060891, -21890.38209800507, -32320.845999818564, -13362.476332482855, 2901.9046308880606, 5240.634708480205, -11410.319675245248, -17098.995101332082, -16904.31140712636, 24928.721777048326, -12831.48829120258, -12569.63760490866, -9021.901669728955, 4008.874775037143, -1566.700824105838, -3272.340091745865, -0.269125, 0.9152500000000001, -0.111875, 192.0, 0.0, 0.0, 0.0, 0.0, 0.0, 0.0, 0.0, 0.0, 0.0, 1.673044248060756E9, 0.0, 2023-01-06 17:30:48.060
248.0, -15925.997904062022, -21911.48214477088, -32344.5835524301, -13382.07881237016, 2859.9727582899045, 5259.857208711768, -11460.342879336224, -17052.682286820684, -16922.97511374654, 24882.16309334792, -12852.297765290472, -12625.002875924454, -9039.112512959542, 3969.7368704959003, -1594.4840424637846, -3326.677182516716, -0.269125, 0.9152500000000001, -0.111875, 192.0, 0.0, 0.0, 0.0, 0.0, 0.0, 0.0, 0.0, 0.0, 0.0, 1.6730442480607617E9, 0.0, 2023-01-06 17:30:48.060
250.0, -15897.253560692498, -21875.406429220013, -32326.456287676847, -13358.363611503079, 2862.252636224346, 5255.27510109843, -11437.812320925275, -16907.217133905546, -16902.903247225673, 24935.74022480729, -12837.322096505415, -12573.057421810321, -9020.247640639263, 4012.875737294643, -1563.9962630267457, -3270.3060830004315, -0.27456250000000004, 0.9016250000000001, -0.1179375, 192.0, 123.5, 32.0, 13.5, 96.0, 126.0, 16.0, 0.0, 0.0, 0.0, 1.6730442480607677E9, 0.0, 2023-01-06 17:30:48.060
252.0, -15927.540174429438, -21897.288787041758, -32349.053901321164, -13381.564722247687, 2855.3682989321114, 5238.80186543487, -11461.996908425917, -16803.527391377378, -16917.186011932616, 24891.886102185978, -12855.091733347384, -12630.97079169402, -9036.139730946987, 3994.636713819112, -1584.6269231589943, -3291.7190541886157, -0.27456250000000004, 0.9016250000000001, -0.1179375, 192.0, 0.0, 0.0, 0.0, 0.0, 0.0, 0.0, 0.0, 0.0, 0.0, 1.6730442480607731E9, 0.0, 2023-01-06 17:30:48.060
254.0, -15924.947372072624, -21889.599786949133, -32344.69531115238, -13378.010794879294, 2861.3362147016783, 5269.401403594185, -11474.245664387425, -16761.148483890116, -16924.115052713758, 24909.923959961412, -12857.729239193111, -12600.237143067974, -9034.061018712642, 3994.1673271855507, -1568.734832851271, -3283.359501762331, -0.27456250000000004, 0.9016250000000001, -0.1179375, 192.0, 0.0, 0.0, 0.0, 0.0, 0.0, 0.0, 0.0, 0.0, 0.0, 1.673044248060779E9, 0.0, 2023-01-06 17:30:48.060
0.0, -15938.023142578977, -21898.920464386996, -32351.087910066595, -13390.348957818624, 2864.6219211366083, 5266.942711704101, -11506.052196747327, -16682.403288174068, -16923.712721313565, 24875.16699733341, -12858.288032804494, -12638.570384808825, -9037.54789084767, 3977.001187443875, -1569.1371642514664, -3301.2185455821214, -0.27456250000000004, 0.9016250000000001, -0.1179375, 192.0, 0.0, 0.0, 0.0, 0.0, 0.0, 0.0, 0.0, 0.0, 0.0, 1.6730442480607848E9, 0.0, 2023-01-06 17:30:48.060
2.0, -15942.873471125778, -21903.971958633898, -32351.26672402224, -13386.88443742805, 2900.4294157540103, 5270.474287328039, -11528.359237713723, -16480.5893874871, -16924.58443934732, 24889.650927740448, -12863.317175306938, -12612.441195540572, -9038.17373969242, 3962.8301814592105, -1581.989417313268, -3305.353618306353, -0.27456250000000004, 0.9016250000000001, -0.1179375, 192.0, 0.0, 0.0, 0.0, 0.0, 0.0, 0.0, 0.0, 0.0, 0.0, 1.6730442480607903E9, 0.0, 2023-01-06 17:30:48.060
4.0, -15968.242701082552, -21936.04671192726, -32372.50088125478, -13435.27596417379, 2850.8085430632286, 5287.461613114073, -11460.78991422533, -16383.247540384238, -16935.335628430323, 24824.450889164316, -12882.718489494144, -12672.947367781087, -9052.702373588369, 3926.4191897415153, -1604.5199757242176, -3339.194159411688, -0.26528125, 0.8888125, -0.09996875, 192.0, 124.0, 0.0, 13.5, 48.0, 126.5, 56.0, 0.0, 0.0, 0.0, 1.6730442480607977E9, 0.0, 2023-01-06 17:30:48.060
6.0, -15933.463386710095, -21897.601711464133, -32350.01502633274, -13403.022396924782, 2840.6161475916088, 5270.407232094673, -11515.775205585385, -16076.84982739089, -16918.549468344387, 24855.609220935014, -12883.389041827804, -12650.953251237066, -9026.30496338665, 3948.0556783742522, -1575.3956526989523, -3336.2437291435876, -0.26528125, 0.8888125, -0.09996875, 192.0, 0.0, 0.0, 0.0, 0.0, 0.0, 0.0, 0.0, 0.0, 0.0, 1.6730442480608032E9, 0.0, 2023-01-06 17:30:48.060
8.0, -15935.475043711072, -21896.729993430377, -32366.84588990759, -13435.633592085076, 2834.8046940332288, 5238.198368334576, -11445.903652418096, -15940.280668768964, -16878.271624835925, 24834.933857313856, -12873.576626011924, -12677.395364927694, -9018.057169682643, 3957.421059301026, -1574.7027486208378, -3335.126141920822, -0.26528125, 0.8888125, -0.09996875, 192.0, 0.0, 0.0, 0.0, 0.0, 0.0, 0.0, 0.0, 0.0, 0.0, 1.673044248060809E9, 0.0, 2023-01-06 17:30:48.060
10.0, -15904.227304962553, -21857.927365055963, -32365.683599195912, -13443.5237578778, 2870.6792438839966, 5322.8220728423685, -11492.283522162857, -15794.144963520166, -16882.11612488224, 24848.63547666496, -12874.805971956966, -12662.240882186996, -9022.952201718355, 3949.977928397409, -1575.306245721131, -3333.89679597578, -0.26528125, 0.8888125, -0.09996875, 192.0, 0.0, 0.0, 0.0, 0.0, 0.0, 0.0, 0.0, 0.0, 0.0, 1.6730442480608149E9, 0.0, 2023-01-06 17:30:48.060
12.0, -15912.564505644383, -21866.666897137988, -32375.987753389807, -13470.681127390997, 2861.47032516841, 5325.504282177006, -11481.08529819075, -15708.649540978617, -16890.72154649753, 24800.825095275057, -12888.30642560797, -12706.676150164147, -9047.025030496721, 3898.323046961194, -1608.0962548370667, -3363.557560867973, -0.26528125, 0.8888125, -0.09996875, 192.0, 0.0, 0.0, 0.0, 0.0, 0.0, 0.0, 0.0, 0.0, 0.0, 1.6730442480608203E9, 0.0, 2023-01-06 17:30:48.060
14.0, -15888.29051116592, -21846.863251550585, -32366.0412271072, -13453.827912071696, 2846.829932550184, 5341.999869585022, -11438.237004069926, -15493.335186640643, -16881.467924293032, 24816.51601988268, -12886.942969196198, -12695.746147125501, -9051.40597240996, 3912.3152389902166, -1619.8085689316474, -3371.1124504938666, -0.23064062500000002, 0.86640625, -0.080984375, 192.0, 124.5, 112.0, 13.0, 48.0, 127.0, 8.0, 0.0, 0.0, 0.0, 1.6730442480608263E9, 0.0, 2023-01-06 17:30:48.060
16.0, -15877.628729060738, -21856.787426088744, -32368.969305630842, -13457.47124641791, 2901.8822791436055, 5418.59929783336, -11463.293309604325, -15485.556779570197, -16865.91111015214, 24823.78033683066, -12864.680631718711, -12689.912341822666, -9024.203899407852, 3925.5698234522133, -1573.9427893093575, -3337.0483919439785, -0.23064062500000002, 0.86640625, -0.080984375, 192.0, 0.0, 0.0, 0.0, 0.0, 0.0, 0.0, 0.0, 0.0, 0.0, 1.673044248060832E9, 0.0, 2023-01-06 17:30:48.060
18.0, -15901.835668305835, -21893.198417806438, -32412.51050382978, -13485.477982220411, 2929.084352145714, 5613.439454250271, -11506.432176403068, -15465.373154327055, -16904.82549724883, 24770.382019326928, -12908.244181662105, -12727.507975996492, -9090.409766484472, 3806.4126737609718, -1659.8852467400131, -3418.587555716939, -0.23064062500000002, 0.86640625, -0.080984375, 192.0, 0.0, 0.0, 0.0, 0.0, 0.0, 0.0, 0.0, 0.0, 0.0, 1.6730442480608375E9, 0.0, 2023-01-06 17:30:48.060
20.0, -15894.839572291325, -21905.134249345574, -32372.702046954877, -13418.445100598945, 2831.5189875982987, 5416.587640832382, -11447.26710882987, -15204.01420641115, -16885.11125863925, 24778.562757797572, -12888.172315141239, -12675.137838737708, -9068.12507726253, 3891.5504683912363, -1623.3624963000414, -3389.999674558601, -0.23064062500000002, 0.86640625, -0.080984375, 192.0, 0.0, 0.0, 0.0, 0.0, 0.0, 0.0, 0.0, 0.0, 0.0, 1.6730442480608432E9, 0.0, 2023-01-06 17:30:48.060
22.0, -15864.150627154188, -21872.590109418645, -32356.11705256904, -13401.949513190928, 2810.4636443213994, 5334.377924725763, -11490.294216906335, -15030.944649093706, -16888.91105519665, 24780.77558049865, -12868.726297465122, -12623.952343935054, -9053.46233289985, 3950.9614051534422, -1624.5471387561727, -3377.929732552735, -0.23064062500000002, 0.86640625, -0.080984375, 192.0, 0.0, 0.0, 0.0, 0.0, 0.0, 0.0, 0.0, 0.0, 0.0, 1.673044248060849E9, 0.0, 2023-01-06 17:30:48.060
24.0, -15850.873690947736, -21891.879664883574, -32339.710872138843, -13435.387722896066, 2821.6171648045975, 5616.68045719629, -11411.34785549019, -14632.211879755483, -16898.29878786788, 24772.77365598365, -12851.135474578796, -12575.426706722583, -9055.943376534387, 3921.233585027884, -1642.4955895537842, -3394.7605961275813, -0.23064062500000002, 0.86640625, -0.080984375, 192.0, 0.0, 0.0, 0.0, 0.0, 0.0, 0.0, 0.0, 0.0, 0.0, 1.673044248060855E9, 0.0, 2023-01-06 17:30:48.060
26.0, -15822.419920256129, -21826.366701885072, -32305.266833933216, -13363.660974938986, 2796.1138243810924, 5397.87923072329, -11441.098027360205, -14375.636205153014, -16885.78181097291, 24729.61243744045, -12834.237555770584, -12576.901921856634, -9031.177643677907, 3924.072256573708, -1609.6161734600275, -3359.8471712883916, -0.226, 0.9460000000000001, 0.026000000000000002, 192.0, 124.0, 120.0, 14.5, 72.0, 0.0, 104.0, 0.0, 0.0, 0.0, 1.6730442480608604E9, 0.0, 2023-01-06 17:30:48.060
28.0, -15810.707606161548, -21789.151047366984, -32291.542862837658, -13401.74834749083, 2833.5529963437316, 5330.421665957173, -11402.764785619353, -14184.931121460335, -16869.643851476176, 24743.31405679155, -12808.86832581381, -12483.270464333353, -9005.473137554305, 4037.6861736400338, -1598.082673321089, -3355.8238572864366, -0.226, 0.9460000000000001, 0.026000000000000002, 192.0, 0.0, 0.0, 0.0, 0.0, 0.0, 0.0, 0.0, 0.0, 0.0, 1.673044248060866E9, 0.0, 2023-01-06 17:30:48.060
30.0, -15811.26639977293, -21831.37349264306, -32298.069572218606, -13431.856147272129, 2824.5005398393323, 5382.188306115664, -11438.684038959032, -13880.567417212418, -16895.974206444527, 24659.69618078425, -12821.497061431059, -12485.885618434622, -9011.68692251288, 4002.549231356291, -1599.2226122883096, -3392.167793770766, -0.226, 0.9460000000000001, 0.026000000000000002, 192.0, 0.0, 0.0, 0.0, 0.0, 0.0, 0.0, 0.0, 0.0, 0.0, 1.673044248060872E9, 0.0, 2023-01-06 17:30:48.060
32.0, -15809.0312253274, -21914.276112827793, -32275.58371729657, -13415.3158563752, 2836.123446956092, 5558.901197779322, -11367.761953802343, -13548.286384139823, -16901.360976858257, 24676.59409959246, -12812.802232837945, -12384.900436985547, -9014.54794580316, 3997.1848126870173, -1588.247905760754, -3358.483714876618, -0.226, 0.9460000000000001, 0.026000000000000002, 192.0, 0.0, 0.0, 0.0, 0.0, 0.0, 0.0, 0.0, 0.0, 0.0, 1.6730442480608776E9, 0.0, 2023-01-06 17:30:48.060
34.0, -15789.160524506633, -21890.538560216257, -32290.022944214696, -13421.686103544964, 2820.611336304109, 5419.940402500678, -11432.269088300358, -13293.722366538332, -16918.750634044485, 24637.92558168478, -12831.421235969216, -12383.06759394021, -9031.02118146672, 3988.5793910717243, -1591.4889087067734, -3378.846154075403, -0.226, 0.9460000000000001, 0.026000000000000002, 192.0, 0.0, 0.0, 0.0, 0.0, 0.0, 0.0, 0.0, 0.0, 0.0, 1.6730442480608833E9, 0.0, 2023-01-06 17:30:48.060
36.0, -15760.371477648197, -21866.242213993337, -32295.521473350702, -13451.726848092896, 2814.3081443677124, 5392.470108565105, -11345.29845062476, -13015.309037603027, -16902.836191992308, 24696.17422773531, -12831.085959802385, -12304.098880779611, -9023.488643585282, 4085.5859620077567, -1617.6851532083933, -3363.3787469123304, -0.234, 1.006, 0.136, 192.0, 124.0, 88.0, 15.5, 56.0, 2.0, 32.0, 0.0, 0.0, 0.0, 1.6730442480608904E9, 0.0, 2023-01-06 17:30:48.060
38.0, -15766.87583528469, -21881.15082754503, -32308.977223512797, -13459.773476096807, 2828.3897433745556, 5414.710094298136, -11425.608268452677, -12862.40075378427, -16918.63887532221, 24627.77788970207, -12828.895488845765, -12351.506930769317, -9033.591632079082, 4047.7221069004668, -1600.407254744441, -3379.181430242232, -0.234, 1.006, 0.136, 192.0, 0.0, 0.0, 0.0, 0.0, 0.0, 0.0, 0.0, 0.0, 0.0, 1.673044248060896E9, 0.0, 2023-01-06 17:30:48.060
40.0, -15771.994384764957, -21898.719298686898, -32283.563290067115, -13408.006835938317, 2793.990408657838, 5435.74308583058, -11367.985471246895, -12772.725555029578, -16934.06157899637, 24673.241337924166, -12814.858593327832, -12303.182459256943, -9071.299024975184, 4027.60553689069, -1644.1049151545662, -3381.126032009844, -0.234, 1.006, 0.136, 192.0, 0.0, 0.0, 0.0, 0.0, 0.0, 0.0, 0.0, 0.0, 0.0, 1.6730442480609019E9, 0.0, 2023-01-06 17:30:48.060
42.0, -15770.988556264469, -21888.795124148743, -32284.658525545423, -13374.345108788624, 2785.2732283202686, 5396.985160945077, -11387.476192411923, -12626.366332336227, -16909.653474051174, 24642.328875342475, -12793.490325628558, -12319.923915853968, -9031.445864611373, 4029.3489729582043, -1591.4218534734075, -3363.9822440126236, -0.234, 1.006, 0.136, 192.0, 0.0, 0.0, 0.0, 0.0, 0.0, 0.0, 0.0, 0.0, 0.0, 1.6730442480609076E9, 0.0, 2023-01-06 17:30:48.060
44.0, -15759.812684036815, -21908.889342414062, -32309.53601712418, -13377.563759990187, 2802.282905850757, 5471.260007770063, -11382.022366764828, -12383.179352662488, -16925.232639936523, 24659.807939506525, -12811.595238637357, -12287.916217793969, -9031.535271589193, 4005.8349377912214, -1625.7764847012145, -3380.120203509355, -0.234, 1.006, 0.136, 192.0, 0.0, 0.0, 0.0, 0.0, 0.0, 0.0, 0.0, 0.0, 0.0, 1.673044248060913E9, 0.0, 2023-01-06 17:30:48.060
46.0, -15758.158654947121, -21927.3742350786, -32294.001554727743, -13367.818399407673, 2777.2266003163577, 5328.9240990786675, -11316.107072366129, -12189.210914279332, -16930.95468651708, 24635.221020605688, -12796.48545938557, -12365.744991987347, -9026.908460486944, 4020.050647264796, -1610.018504860223, -3363.1775812122323, -0.224, 1.202, 0.212, 192.0, 124.5, 0.0, 18.5, 72.0, 3.0, 80.0, 0.0, 0.0, 0.0, 1.673044248060919E9, 0.0, 2023-01-06 17:30:48.060
48.0, -15751.676649055082, -21913.694967471954, -32283.116255178007, -13393.411146809, 2814.0622751787037, 5395.800518488946, -11279.740784137342, -11928.857794863916, -16930.798224305898, 24678.0246112376, -12798.63122685328, -12308.792747115225, -9035.625640824514, 3996.961295242464, -1599.60259194405, -3353.7898485410037, -0.224, 1.202, 0.212, 192.0, 0.0, 0.0, 0.0, 0.0, 0.0, 0.0, 0.0, 0.0, 0.0, 1.6730442480609245E9, 0.0, 2023-01-06 17:30:48.060
50.0, -15773.179027221087, -21946.462624843436, -32346.97518908682, -13471.75401112485, 2802.3276093396676, 5355.880302891767, -11327.417055060514, -11877.091154705424, -16934.709779585573, 24635.10926188341, -12810.969389792608, -12363.643928008549, -9050.064867742643, 3978.2752368778274, -1611.113740338533, -3385.126994267344, -0.224, 1.202, 0.212, 192.0, 0.0, 0.0, 0.0, 0.0, 0.0, 0.0, 0.0, 0.0, 0.0, 1.6730442480609305E9, 0.0, 2023-01-06 17:30:48.060
52.0, -15773.0225650099, -21956.744427292877, -32374.40077953348, -13509.14847959858, 2784.960303897894, 5428.143492715775, -11343.800883746253, -11739.806740260929, -16967.723306146065, 24661.35020987394, -12847.782712910499, -12353.362125559108, -9089.783917639723, 3937.5280067358026, -1640.2380633637981, -3436.6477652368267, -0.224, 1.202, 0.212, 192.0, 0.0, 0.0, 0.0, 0.0, 0.0, 0.0, 0.0, 0.0, 0.0, 1.673044248060936E9, 0.0, 2023-01-06 17:30:48.060
54.0, -15751.028448465879, -21940.76293000733, -32377.865299924055, -13520.525517526332, 2757.6464721735088, 5499.020874383554, -11301.265514047804, -11538.238708762969, -16977.3569080063, 24644.83227072147, -12834.170500537217, -12395.11518420162, -9097.204696798884, 3920.160701294029, -1635.857121450558, -3416.4417882492294, -0.224, 1.202, 0.212, 192.0, 0.0, 0.0, 0.0, 0.0, 0.0, 0.0, 0.0, 0.0, 0.0, 1.6730442480609417E9, 0.0, 2023-01-06 17:30:48.060
56.0, -15755.87877701268, -21937.410168339036, -32401.8487217246, -13547.3476108727, 2758.764059396274, 5428.232899693597, -11343.711476768432, -11410.811413623263, -16968.684431157642, 24688.731096831692, -12819.06072128543, -12350.992840646844, -9079.233894256819, 3938.936166636487, -1612.119568839022, -3431.573919245472, -0.198, 1.174, 0.29, 192.0, 124.5, 104.0, 18.0, 88.0, 4.5, 8.0, 0.0, 0.0, 0.0, 1.6730442480609477E9, 0.0, 2023-01-06 17:30:48.060
58.0, -15761.511416615418, -21947.088473688185, -32411.437620095927, -13576.740154831428, 2734.8923963180064, 5543.2326249161515, -11362.598700833167, -11221.246268897805, -16986.36466102179, 24646.17337538879, -12833.119968547819, -12404.704082572947, -9098.903429377488, 3898.300695216739, -1653.7161652703483, -3459.737117259159, -0.198, 1.174, 0.29, 192.0, 0.0, 0.0, 0.0, 0.0, 0.0, 0.0, 0.0, 0.0, 0.0, 1.6730442480609531E9, 0.0, 2023-01-06 17:30:48.060
60.0, -15753.956526989525, -21929.967037435417, -32416.37735562055, -13565.20665469249, 2715.066398986149, 5416.78880653248, -11382.961140031952, -11204.325998345137, -16991.304396546413, 24667.74280878816, -12831.689456902679, -12383.849904996147, -9087.593446683102, 3930.487207232381, -1667.5742468326387, -3465.7273847731813, -0.198, 1.174, 0.29, 192.0, 0.0, 0.0, 0.0, 0.0, 0.0, 0.0, 0.0, 0.0, 0.0, 1.6730442480609589E9, 0.0, 2023-01-06 17:30:48.060
62.0, -15768.865140541213, -21937.834851483687, -32397.244262366807, -13552.577919075242, 2722.8224543121405, 5396.627533033792, -11383.050547009772, -11141.696410381366, -16994.344233792333, 24645.435767821764, -12825.363913221827, -12395.003425479345, -9090.543876951204, 3939.6961259479676, -1674.2574184247756, -3478.9372657462677, -0.198, 1.174, 0.29, 192.0, 0.0, 0.0, 0.0, 0.0, 0.0, 0.0, 0.0, 0.0, 0.0, 1.6730442480609648E9, 0.0, 2023-01-06 17:30:48.060
64.0, -15836.121539607233, -21986.651061374076, -32431.353024405606, -13605.17157377858, 2695.8215470101295, 5382.568285771405, -11400.082576284716, -11090.53326732317, -17003.97783565257, 24607.750726670114, -12838.663201172734, -12398.937332503478, -9101.786804412222, 3892.4445381694486, -1699.3807791925406, -3507.480443415695, -0.198, 1.174, 0.29, 192.0, 0.0, 0.0, 0.0, 0.0, 0.0, 0.0, 0.0, 0.0, 0.0, 1.6730442480609703E9, 0.0, 2023-01-06 17:30:48.060
66.0, -15846.962135668056, -22005.44887846099, -32423.284044657237, -13627.679780445074, 2733.0148497837604, 5446.382516191306, -11416.935791604017, -10962.927158227822, -17016.003074169526, 24565.1483017383, -12848.676782688712, -12423.300733959763, -9107.620609715059, 3851.8984737275214, -1708.9026223305016, -3525.741818635681, -0.26, 1.202, 0.34, 192.0, 123.5, 112.0, 18.5, 72.0, 5.0, 80.0, 0.0, 0.0, 0.0, 1.673044248060976E9, 0.0, 2023-01-06 17:30:48.060
68.0, -15902.90855203969, -22075.879225239663, -32476.056513316216, -13696.925484767615, 2683.349273604068, 5315.62481112776, -11377.39555566258, -10945.135169641397, -17030.64346678775, 24547.378664896332, -12863.07130611793, -12441.718571390937, -9112.47093826186, 3819.2425750783177, -1703.627610639049, -3550.0158131141443, -0.26, 1.202, 0.34, 192.0, 0.0, 0.0, 0.0, 0.0, 0.0, 0.0, 0.0, 0.0, 0.0, 1.673044248060984E9, 0.0, 2023-01-06 17:30:48.060
70.0, -15924.120357527776, -22119.509830416424, -32512.8251329452, -13736.95745908707, 2655.163723845926, 5293.585991094827, -11476.972577210972, -10849.916738261789, -17092.96013032915, 24507.883132443803, -12922.325780668949, -12483.09165037771, -9161.354203385616, 3795.013284088765, -1735.2329772988533, -3604.956400985289, -0.26, 1.202, 0.34, 192.0, 0.0, 0.0, 0.0, 0.0, 0.0, 0.0, 0.0, 0.0, 0.0, 1.6730442480609896E9, 0.0, 2023-01-06 17:30:48.060
72.0, -15944.549851959928, -22135.75954863543, -32550.35371188566, -13778.129372373745, 2667.1219071295154, 5328.678229889659, -11403.25652399737, -10760.621519162836, -17127.47122376814, 24493.510960759042, -12948.142045514829, -12516.038121704833, -9189.450346165937, 3758.758754582257, -1779.78000399828, -3622.0331337491434, -0.26, 1.202, 0.34, 192.0, 0.0, 0.0, 0.0, 0.0, 0.0, 0.0, 0.0, 0.0, 0.0, 1.6730442480609953E9, 0.0, 2023-01-06 17:30:48.060
74.0, -15928.05426455191, -22128.204659009538, -32556.902773011065, -13786.310110844388, 2685.3609306050457, 5357.8025529149245, -11394.762861104353, -10669.96284365211, -17133.707360471173, 24520.601275038873, -12941.99531578962, -12492.814659215768, -9194.635950879569, 3761.1280394945193, -1745.112448348099, -3607.57155508656, -0.26, 1.202, 0.34, 192.0, 0.0, 0.0, 0.0, 0.0, 0.0, 0.0, 0.0, 0.0, 0.0, 1.6730442480610013E9, 0.0, 2023-01-06 17:30:48.061
76.0, -15916.878392324257, -22112.75960359092, -32573.174842974528, -13797.798907494416, 2600.0890255080494, 5328.857043845302, -11418.58982069371, -10661.580939481371, -17128.253534824078, 24535.33107463492, -12943.85051057941, -12529.091540466732, -9200.380349204583, 3726.1922629108744, -1767.4194893144954, -3638.953404301811, -0.254, 1.1460000000000001, 0.36, 192.0, 124.0, 8.0, 17.5, 104.0, 5.5, 32.0, 0.0, 0.0, 0.0, 1.6730442480610068E9, 0.0, 2023-01-06 17:30:48.061
78.0, -15894.794868802413, -22076.259204895403, -32561.01549399084, -13795.988416193535, 2603.0841592650604, 5278.610322309772, -11399.434375695513, -10647.029953840965, -17112.272037538532, 24601.425182989264, -12926.438501648725, -12484.61156900067, -9187.595151376147, 3788.3524642410835, -1751.303881562219, -3639.2663287241853, -0.254, 1.1460000000000001, 0.36, 192.0, 0.0, 0.0, 0.0, 0.0, 0.0, 0.0, 0.0, 0.0, 0.0, 1.6730442480610125E9, 0.0, 2023-01-06 17:30:48.061
80.0, -15910.53049689895, -22080.32722238627, -32578.58396513271, -13813.243962913033, 2585.6945020788316, 5286.031101468933, -11401.11075652966, -10627.159253020198, -17136.121348872348, 24580.883929834836, -12937.212042476183, -12546.458845908504, -9192.423128178492, 3767.051251775176, -1754.9025124195234, -3662.2886255131516, -0.254, 1.1460000000000001, 0.36, 192.0, 0.0, 0.0, 0.0, 0.0, 0.0, 0.0, 0.0, 0.0, 0.0, 1.673044248540909E9, 0.0, 2023-01-06 17:30:48.540
82.0, -15891.799735045402, -22064.211614633994, -32553.125328198115, -13772.58613974883, 2630.3756392449905, 5341.4857794625495, -11386.850343567176, -10529.683295450604, -17136.322514572443, 24621.094718109933, -12932.361713929382, -12517.066301949777, -9189.472697910393, 3764.8607808185557, -1734.4506662429174, -3628.7386570857357, -0.254, 1.1460000000000001, 0.36, 192.0, 0.0, 0.0, 0.0, 0.0, 0.0, 0.0, 0.0, 0.0, 0.0, 1.6730442485409358E9, 0.0, 2023-01-06 17:30:48.540
84.0, -15900.740432827526, -22070.02306819237, -32560.523755612823, -13759.957404131581, 2600.714874352798, 5304.426587155651, -11332.021514418306, -10519.759120912448, -17129.43817728021, 24606.43197374725, -12919.442405634214, -12544.357781929706, -9171.323081412684, 3787.145470040497, -1733.7801139092583, -3611.8407382775235, -0.254, 1.1460000000000001, 0.36, 192.0, 0.0, 0.0, 0.0, 0.0, 0.0, 0.0, 0.0, 0.0, 0.0, 1.6730442485409412E9, 0.0, 2023-01-06 17:30:48.540
86.0, -15898.929941526645, -22065.84329197923, -32560.523755612823, -13754.458874995575, 2634.801284647141, 5317.48000591755, -11299.119746580094, -10481.962321038523, -17143.452721053687, 24622.97226464418, -12931.311181939982, -12515.255810648896, -9170.09373546764, 3773.600312900581, -1706.2874682292306, -3612.9359737558334, -0.23600000000000002, 1.166, 0.382, 192.0, 124.0, 80.0, 18.0, 56.0, 5.5, 120.0, 0.0, 0.0, 0.0, 1.6730442485409465E9, 0.0, 2023-01-06 17:30:48.540
88.0, -15894.504296124494, -22055.02504766286, -32566.335209171204, -13762.661965210673, 2606.1463482554377, 5315.66951461667, -11291.006063342818, -10456.995422481945, -17127.784148190516, 24602.431011489753, -12921.342303912916, -12559.221691992485, -9165.064592965198, 3774.5837896566145, -1725.53232020525, -3591.634761289926, -0.23600000000000002, 1.166, 0.382, 192.0, 0.0, 0.0, 0.0, 0.0, 0.0, 0.0, 0.0, 0.0, 0.0, 1.6730442485409515E9, 0.0, 2023-01-06 17:30:48.540
90.0, -15860.909624208169, -22016.468288477456, -32538.44023209098, -13763.511331499974, 2639.4057440049346, 5375.63924499026, -11262.194664739927, -10397.182154319544, -17118.19524981919, 24642.2171166202, -12928.673676094257, -12531.14790095662, -9160.191912673941, 3760.3233766941285, -1698.24084022532, -3585.733900753725, -0.23600000000000002, 1.166, 0.382, 192.0, 0.0, 0.0, 0.0, 0.0, 0.0, 0.0, 0.0, 0.0, 0.0, 1.6730442485409567E9, 0.0, 2023-01-06 17:30:48.540
92.0, -15848.549109524383, -22013.74137565391, -32528.918388953018, -13782.3538520758, 2617.970421072295, 5334.57909042586, -11271.001252055317, -10387.213276292478, -17091.507266939552, 24634.68457873876, -12898.945855968697, -12562.663860638602, -9128.027752402753, 3777.847144347089, -1670.7705462897477, -3574.222752359242, -0.23600000000000002, 1.166, 0.382, 192.0, 0.0, 0.0, 0.0, 0.0, 0.0, 0.0, 0.0, 0.0, 0.0, 1.673044248540962E9, 0.0, 2023-01-06 17:30:48.540
94.0, -15873.448952847595, -22073.5099403274, -32572.6384011076, -13846.212785984611, 2583.638141588943, 5299.308037675386, -11345.074933180205, -10416.672875484572, -17132.88034592633, 24659.31620112851, -12929.835966805931, -12544.290726696341, -9176.262816937306, 3741.212635184841, -1753.0249658852777, -3645.3460032160287, -0.23600000000000002, 1.166, 0.382, 192.0, 0.0, 0.0, 0.0, 0.0, 0.0, 0.0, 0.0, 0.0, 0.0, 1.6730442485409672E9, 0.0, 2023-01-06 17:30:48.540
96.0, -15891.777383300947, -22120.470955428, -32587.323497214737, -13863.356573981831, 2549.7305452502424, 5377.15916361322, -11380.837724308698, -10405.184078834543, -17165.49154108662, 24596.44074397573, -12941.347115200415, -12594.269227298408, -9221.726265159401, 3683.925114145889, -1793.1910506714644, -3692.5528875056375, -0.20400000000000001, 1.143, 0.372, 192.0, 125.0, 80.0, 17.5, 0.0, 5.5, 40.0, 0.0, 0.0, 0.0, 1.6730442485409725E9, 0.0, 2023-01-06 17:30:48.540
98.0, -15895.376014158252, -22109.89858030064, -32582.11554075665, -13828.219631698088, 2566.3155396360803, 5269.557865805372, -11351.288718138781, -10372.014090062868, -17178.477904615153, 24633.187011860253, -12948.522025170569, -12556.070096024287, -9245.821445682222, 3736.2505479157626, -1818.6496876060592, -3667.6083406935145, -0.20400000000000001, 1.143, 0.372, 192.0, 0.0, 0.0, 0.0, 0.0, 0.0, 0.0, 0.0, 0.0, 0.0, 1.6730442485409777E9, 0.0, 2023-01-06 17:30:48.540
100.0, -15892.269121678964, -22093.537103359355, -32576.840529065197, -13835.17102422369, 2605.6546098774206, 5301.654970843193, -11331.350962084647, -10341.682772837017, -17167.816122509972, 24610.76821217158, -12933.7028185967, -12574.130305544175, -9241.01582062433, 3762.8044203286677, -1766.5030677918278, -3626.0340960066437, -0.20400000000000001, 1.143, 0.372, 192.0, 0.0, 0.0, 0.0, 0.0, 0.0, 0.0, 0.0, 0.0, 0.0, 1.6730442485409915E9, 0.0, 2023-01-06 17:30:48.540
102.0, -15878.947481983601, -22088.619719579186, -32580.439159922502, -13872.610196186328, 2589.7625195696974, 5522.914889206278, -11347.846549492664, -10313.094891678678, -17156.01440143757, 24624.447479778228, -12962.067182310484, -12586.624930694692, -9258.07020164373, 3715.7539982502462, -1773.7673847398025, -3625.8329303065457, -0.20400000000000001, 1.143, 0.372, 192.0, 0.0, 0.0, 0.0, 0.0, 0.0, 0.0, 0.0, 0.0, 0.0, 1.6730442485409968E9, 0.0, 2023-01-06 17:30:48.540
104.0, -15851.9912781705, -22035.467271264468, -32560.590810846188, -13851.2195767426, 2620.809092618119, 5366.296215807941, -11324.757197470331, -10473.759230823425, -17137.663619239764, 24588.237653760632, -12940.341286699926, -12619.996085166465, -9247.363716049638, 3719.240870385274, -1741.7596866798028, -3618.6133168474817, -0.20400000000000001, 1.143, 0.372, 192.0, 0.0, 0.0, 0.0, 0.0, 0.0, 0.0, 0.0, 0.0, 0.0, 1.673044248541002E9, 0.0, 2023-01-06 17:30:48.541
106.0, -15813.792146896381, -22001.291453992304, -32539.267246635827, -13858.036858801468, 2595.8868975504515, 5375.795707201446, -11309.066272862707, -10333.010295988357, -17118.351712030377, 24629.990712403145, -12901.069271691951, -12580.992291091954, -9212.338532488171, 3787.3913392295053, -1747.3923262825401, -3603.212964917775, -0.175, 1.1385, 0.37, 192.0, 125.5, 56.0, 17.5, 56.0, 5.5, 64.0, 0.0, 0.0, 0.0, 1.6730442485410073E9, 0.0, 2023-01-06 17:30:48.541
108.0, -15828.410187770152, -22038.238887576925, -32556.522793355325, -13897.197115087167, 2649.799305176652, 5370.923026910189, -11296.593999456645, -10348.209482217966, -17110.305084026466, 24598.29593876552, -12869.732125965611, -12578.555950946326, -9185.158811230518, 3800.5118132247703, -1747.2135123268977, -3550.41814451434, -0.175, 1.1385, 0.37, 192.0, 0.0, 0.0, 0.0, 0.0, 0.0, 0.0, 0.0, 0.0, 0.0, 1.6730442485410123E9, 0.0, 2023-01-06 17:30:48.541
110.0, -15828.65605695916, -22043.26803007937, -32552.320665397725, -13909.490574537585, 2616.808130360619, 5340.05526781741, -11238.859443528587, -10336.027781489824, -17134.556726760475, 24589.355240983397, -12872.235521344606, -12594.604503465236, -9184.376500174583, 3773.6450163894915, -1791.5817250706823, -3596.6862555368252, -0.175, 1.1385, 0.37, 192.0, 0.0, 0.0, 0.0, 0.0, 0.0, 0.0, 0.0, 0.0, 0.0, 1.6730442485410178E9, 0.0, 2023-01-06 17:30:48.541
112.0, -15866.005821943978, -22109.630359367176, -32562.222488191426, -13925.919106712236, 2599.4631766633006, 5349.755924911014, -11238.74768480631, -10347.360115928665, -17174.16401793528, 24586.829493859947, -12867.966338153641, -12595.811497665823, -9176.084002981665, 3782.585714171614, -1753.7402217078475, -3601.5142323391715, -0.175, 1.1385, 0.37, 192.0, 0.0, 0.0, 0.0, 0.0, 0.0, 0.0, 0.0, 0.0, 0.0, 1.673044248541023E9, 0.0, 2023-01-06 17:30:48.541
114.0, -15932.658723909704, -22138.128833547693, -32601.494503199403, -13955.065781481957, 2546.26602485967, 5293.831860283835, -11301.80195591473, -10287.122164621613, -17221.750881880627, 24556.14054872281, -12929.03130400554, -12644.471245345027, -9239.428846768003, 3715.0387424276764, -1808.2561264343415, -3646.3965352054283, -0.175, 1.1385, 0.37, 192.0, 0.0, 0.0, 0.0, 0.0, 0.0, 0.0, 0.0, 0.0, 0.0, 1.6730442485410283E9, 0.0, 2023-01-06 17:30:48.541
116.0, -15971.662517984214, -22166.20262458356, -32641.682939730043, -13987.38640396433, 2508.6033354524775, 5211.152757543655, -11283.361766739103, -10318.973400470424, -17263.459237034233, 24549.27856317503, -12983.547208732034, -12651.109713448253, -9271.816524483744, 3704.444015555861, -1849.4727432099276, -3650.5986631630262, -0.1745, 1.17425, 0.378, 192.0, 125.0, 72.0, 18.5, 104.0, 6.0, 8.0, 0.0, 0.0, 0.0, 1.6730442485410345E9, 0.0, 2023-01-06 17:30:48.541
118.0, -15948.260241539509, -22167.588432739787, -32638.039605383827, -13968.745049088604, 2501.204908037771, 5280.2643513994635, -11234.679667315444, -10307.0822724202, -17312.208391691256, 24525.317493118942, -13015.756072492131, -12710.297132765905, -9313.614286615168, 3659.852285367523, -1880.3852057916172, -3676.0349483531654, -0.1745, 1.17425, 0.378, 192.0, 0.0, 0.0, 0.0, 0.0, 0.0, 0.0, 0.0, 0.0, 0.0, 1.6730442485410397E9, 0.0, 2023-01-06 17:30:48.541
120.0, -15890.749203056002, -22126.975313064493, -32610.770477148355, -13913.938571684192, 2533.6819927313322, 5246.870845183235, -11174.419364263937, -10232.136873261557, -17300.160801429844, 24556.587583611916, -12994.767784448599, -12717.449690991603, -9299.532687608325, 3690.831803182579, -1862.5038102273716, -3632.4490466653165, -0.1745, 1.17425, 0.378, 192.0, 0.0, 0.0, 0.0, 0.0, 0.0, 0.0, 0.0, 0.0, 0.0, 1.6730442485410454E9, 0.0, 2023-01-06 17:30:48.541
122.0, -15845.486920534006, -22084.4622951105, -32599.34873573169, -13891.36330978433, 2556.234902886737, 5307.9134592906785, -11139.036552791185, -10146.10500885308, -17256.351382297442, 24582.157979268788, -12953.7076298842, -12735.979287145054, -9266.362698836649, 3701.6723992434027, -1813.173510214509, -3595.8368892475237, -0.1745, 1.17425, 0.378, 192.0, 0.0, 0.0, 0.0, 0.0, 0.0, 0.0, 0.0, 0.0, 0.0, 1.673044248541051E9, 0.0, 2023-01-06 17:30:48.541
124.0, -15806.03609157039, -22046.710198725486, -32582.719037856943, -13855.868739589303, 2588.6896358358426, 5342.938642852145, -11122.853889805543, -9949.163788457368, -17236.614791943408, 24638.97611367418, -12930.84179530642, -12716.846193891311, -9252.146989363073, 3726.304021633151, -1792.6993122934477, -3554.3296997940183, -0.1745, 1.17425, 0.378, 192.0, 0.0, 0.0, 0.0, 0.0, 0.0, 0.0, 0.0, 0.0, 0.0, 1.673044248541056E9, 0.0, 2023-01-06 17:30:48.541
126.0, -15783.013794781424, -22026.303056037792, -32576.996991276385, -13859.556777424428, 2622.060790307616, 5358.070773848388, -11074.328252593072, -9903.119194879437, -17220.432128957764, 24643.602924776427, -12913.943876498208, -12745.14350237173, -9246.044963126775, 3734.3282978926063, -1781.7022540214366, -3530.346277993474, -0.13524999999999998, 1.165125, 0.401, 192.0, 126.5, 0.0, 18.0, 16.0, 6.5, 32.0, 0.0, 0.0, 0.0, 1.6730442485410612E9, 0.0, 2023-01-06 17:30:48.541
128.0, -15768.887492285668, -22024.917247881564, -32573.465415652445, -13872.69960316415, 2583.4369758888456, 5361.669404705693, -11109.10756696553, -9799.742376773642, -17215.380634710866, 24666.424055865296, -12921.23054519064, -12737.812130190388, -9254.560977764248, 3737.949280494366, -1763.463230545906, -3526.121798291421, -0.13524999999999998, 1.165125, 0.401, 192.0, 0.0, 0.0, 0.0, 0.0, 0.0, 0.0, 0.0, 0.0, 0.0, 1.6730442485410662E9, 0.0, 2023-01-06 17:30:48.541
130.0, -15761.31025091532, -22024.090233336716, -32572.54899412978, -13869.682117662684, 2605.9898860442504, 5354.762715669002, -11037.045542841619, -9720.125463023838, -17210.93263756426, 24638.640837507348, -12921.990504502119, -12771.295043384438, -9250.112980617641, 3718.4138558404275, -1781.6575505325259, -3535.5542344515607, -0.13524999999999998, 1.165125, 0.401, 192.0, 0.0, 0.0, 0.0, 0.0, 0.0, 0.0, 0.0, 0.0, 0.0, 1.6730442485410717E9, 0.0, 2023-01-06 17:30:48.541
132.0, -15762.74076256046, -22037.99301838792, -32566.290505682293, -13858.618004157306, 2629.682735166876, 5380.377814814784, -11034.653906184902, -9589.94890331613, -17217.995788812135, 24663.45127385274, -12923.219850447162, -12731.79951093191, -9252.750486463367, 3728.181568167397, -1743.4584192584061, -3515.348257463963, -0.13524999999999998, 1.165125, 0.401, 192.0, 0.0, 0.0, 0.0, 0.0, 0.0, 0.0, 0.0, 0.0, 0.0, 1.6730442485410824E9, 0.0, 2023-01-06 17:30:48.541
134.0, -15756.795198535348, -22037.277762565347, -32550.06313920774, -13833.78521606746, 2663.9256076724064, 5419.225146678108, -10990.822135308044, -9481.006500840962, -17229.17166103979, 24628.53784901355, -12922.12461496885, -12756.162912388196, -9244.59209973718, 3724.8735099880114, -1718.9385555909344, -3503.926516047301, -0.13524999999999998, 1.165125, 0.401, 192.0, 0.0, 0.0, 0.0, 0.0, 0.0, 0.0, 0.0, 0.0, 0.0, 1.6730442485410879E9, 0.0, 2023-01-06 17:30:48.541
